

# Magnets are placed back, 2MHz steps
# Scan parameters: power 16.000000 dBm, bandwidth 1.500000 Hz
# Frequency [MHz]	avg noise	std noise	peak value
5000.000000	0.112373	0.112805	22.800057
5002.000000	0.108409	0.113892	18.236085
5004.000000	0.110151	0.121589	22.803168
5006.000000	0.110400	0.108947	19.507895
5008.000000	0.104444	0.105289	24.188247
5010.000000	0.109663	0.116641	19.458020
5012.000000	0.096719	0.095716	29.154192
5014.000000	0.104185	0.100115	35.874728
5016.000000	0.110224	0.115398	27.705768
5018.000000	0.112939	0.120272	29.953477
5020.000000	0.120604	0.119397	34.936003
5022.000000	0.122434	0.125592	25.838064
5024.000000	0.112195	0.121469	25.771732
5026.000000	0.119446	0.131295	29.636228
5028.000000	0.116943	0.107666	29.666981
5030.000000	0.117857	0.133657	22.293420
5032.000000	0.133604	0.129137	19.723834
5034.000000	0.113236	0.100980	22.929993
5036.000000	0.122911	0.125161	26.303020
5038.000000	0.114879	0.114652	27.894154
5040.000000	0.118239	0.114457	18.141586
5042.000000	0.120707	0.124630	20.290856
5044.000000	0.122745	0.113241	24.462696
5046.000000	0.117971	0.111825	18.337229
5048.000000	0.112044	0.110919	15.147240
5050.000000	0.120085	0.111817	19.220929
5052.000000	0.111331	0.106486	12.407371
5054.000000	0.108073	0.117992	8.385602
5056.000000	0.135415	0.129934	8.627542
5058.000000	0.111607	0.107240	12.525970
5060.000000	0.102704	0.092516	9.819199
5062.000000	0.127846	0.125936	17.978652
5064.000000	0.122365	0.114115	26.390766
5066.000000	0.118655	0.125096	26.168838
5068.000000	0.130761	0.140019	27.907728
5070.000000	0.131442	0.134349	12.702857
5072.000000	0.125299	0.118457	10.077776
5074.000000	0.138468	0.121605	12.897707
5076.000000	0.119479	0.117342	12.516859
5078.000000	0.127148	0.139093	9.318865
5080.000000	0.128811	0.123789	8.079435
5082.000000	0.133098	0.120956	10.203908
5084.000000	0.125533	0.130209	10.717165
5086.000000	0.131876	0.115431	9.484783
5088.000000	0.133502	0.142918	9.881612
5090.000000	0.131761	0.135483	11.708127
5092.000000	0.129510	0.132273	17.194597
5094.000000	0.138578	0.139607	13.955077
5096.000000	0.129533	0.125270	9.675546
5098.000000	0.138621	0.135297	9.242611
5100.000000	0.124309	0.136731	6.142139
5102.000000	0.146944	0.152786	4.545412
5104.000000	0.150846	0.155122	4.884781
5106.000000	0.140603	0.130112	2.134794
5108.000000	0.144479	0.131383	3.390689
5110.000000	0.139044	0.127237	4.013638
5112.000000	0.142567	0.133255	7.862783
5114.000000	0.136044	0.129735	7.369516
5116.000000	0.136044	0.132190	8.132768
5118.000000	0.143853	0.151377	9.565026
5120.000000	0.131097	0.122750	11.727307
5122.000000	0.147580	0.157036	19.588123
5124.000000	0.148851	0.140747	16.220810
5126.000000	0.137662	0.138895	9.391911


# 
# Scan parameters: power 16.000000 dBm, bandwidth 1.500000 Hz
# Frequency [MHz]	avg noise	std noise	peak value
5500.000000	0.073849	0.075503	26.582085
5502.000000	0.071618	0.071126	21.701142
5504.000000	0.083754	0.081351	21.179432
5506.000000	0.083488	0.070982	25.698164
5508.000000	0.070251	0.066707	23.746080
5510.000000	0.073339	0.067938	18.459394
5512.000000	0.085085	0.081632	23.809991
5514.000000	0.077430	0.074856	26.012612
5516.000000	0.086997	0.082863	26.629636
5518.000000	0.088866	0.086874	22.987200
5520.000000	0.092054	0.088887	27.366288
5522.000000	0.091818	0.091349	18.393487
5524.000000	0.086979	0.085680	16.811840
5526.000000	0.082187	0.082195	15.717020
5528.000000	0.079808	0.079389	11.731956
5530.000000	0.080033	0.086558	16.227405
5532.000000	0.080800	0.083676	15.095071
5534.000000	0.068642	0.069526	16.307946
5536.000000	0.073275	0.073513	18.650825
5538.000000	0.080172	0.075968	19.286137
5540.000000	0.064080	0.063968	18.719300
5542.000000	0.064819	0.067944	17.707097
5544.000000	0.073347	0.079990	18.320764
5546.000000	0.070493	0.073414	16.092392
5548.000000	0.076406	0.073907	16.301848
5550.000000	0.072232	0.071935	16.352146
5552.000000	0.074309	0.071208	22.561202
5554.000000	0.065403	0.067891	28.881339
5556.000000	0.072262	0.068919	30.701946
5558.000000	0.072892	0.067472	29.823159
5560.000000	0.079434	0.078173	28.873161
5562.000000	0.068879	0.065465	18.618681
5564.000000	0.075642	0.069692	18.353934
5566.000000	0.071596	0.070658	15.039545
5568.000000	0.073040	0.072425	21.835681
5570.000000	0.067842	0.070774	23.889052
5572.000000	0.073969	0.070415	20.607366
5574.000000	0.073430	0.078485	25.769409
5576.000000	0.067758	0.065936	30.131674
5578.000000	0.067181	0.065111	30.962819
5580.000000	0.064871	0.064249	25.157638
5582.000000	0.069248	0.070517	19.952047
5584.000000	0.065075	0.064295	18.519689
5586.000000	0.069201	0.066962	17.846390
5588.000000	0.067241	0.061994	17.013810
5590.000000	0.066586	0.065161	26.916207
5592.000000	0.065580	0.061532	22.081297
5594.000000	0.068921	0.069870	17.149457
5596.000000	0.069300	0.073518	17.811432
5598.000000	0.064823	0.069958	21.567390
5600.000000	0.059197	0.054447	26.151904
5602.000000	0.065629	0.066830	18.543214
5604.000000	0.068128	0.070846	16.491302
5606.000000	0.064418	0.060682	14.709682
5608.000000	0.068523	0.074296	12.961894
5610.000000	0.064807	0.066007	16.578135
5612.000000	0.063904	0.058293	19.476850
5614.000000	0.061783	0.058318	25.575154
5616.000000	0.065923	0.063790	19.535846
5618.000000	0.062284	0.061498	19.714868
5620.000000	0.066088	0.065820	17.518763
5622.000000	0.065226	0.065061	16.407659
5624.000000	0.062844	0.059813	15.076891
5626.000000	0.067973	0.065509	21.191103
5628.000000	0.062317	0.061196	23.222137
5630.000000	0.065565	0.071751	21.443138
5632.000000	0.067021	0.063531	14.611796
5634.000000	0.066640	0.073347	13.640587
5636.000000	0.069801	0.071988	14.173252
5638.000000	0.058839	0.064251	11.715054
5640.000000	0.060107	0.055912	14.517218
5642.000000	0.067586	0.063418	15.842776
5644.000000	0.065968	0.064983	22.494292
5646.000000	0.060571	0.057639	19.547904
5648.000000	0.062680	0.067574	20.412919
5650.000000	0.065356	0.063804	22.903041
5652.000000	0.057498	0.059306	24.848336
5654.000000	0.062131	0.056400	23.465981
5656.000000	0.058220	0.061507	22.532784
5658.000000	0.061118	0.064758	22.534002
5660.000000	0.061764	0.062021	27.398690
5662.000000	0.062868	0.063587	26.287623
5664.000000	0.061173	0.061740	25.467334
5666.000000	0.061771	0.060693	25.851957
5668.000000	0.063012	0.057249	26.745046
5670.000000	0.061746	0.068650	20.744967
5672.000000	0.061473	0.061386	21.129571
5674.000000	0.066731	0.064997	30.060693
5676.000000	0.059650	0.064421	37.055887
5678.000000	0.060979	0.061723	34.891540
5680.000000	0.062288	0.060132	32.261124
5682.000000	0.057106	0.061935	23.558803
5684.000000	0.054891	0.057132	24.632745
5686.000000	0.065309	0.062179	23.704973
5688.000000	0.060969	0.060538	23.438787
5690.000000	0.058069	0.058818	23.782126
5692.000000	0.057106	0.058030	29.131792
5694.000000	0.059627	0.057689	30.361540
5696.000000	0.063412	0.068827	40.127217
5698.000000	0.061342	0.064601	39.362852
5700.000000	0.061507	0.073992	33.324351
5702.000000	0.062013	0.060865	25.289094
5704.000000	0.061781	0.065326	28.279606
5706.000000	0.052535	0.055996	30.103161
5708.000000	0.065241	0.064152	32.414619
5710.000000	0.064043	0.059829	27.407408
5712.000000	0.058882	0.062126	32.621573
5714.000000	0.061202	0.057392	37.758488
5716.000000	0.059273	0.055537	35.375947
5718.000000	0.059252	0.060653	38.111006
5720.000000	0.058450	0.052355	38.284534
5722.000000	0.058148	0.058178	34.832287
5724.000000	0.063610	0.062841	34.860632
5726.000000	0.062823	0.061266	38.188580
5728.000000	0.062116	0.061508	42.858130
5730.000000	0.054695	0.052676	41.434669
5732.000000	0.060095	0.059707	44.125579
5734.000000	0.060249	0.058528	49.557985
5736.000000	0.059127	0.063484	47.248416
5738.000000	0.060894	0.056651	42.864627
5740.000000	0.060351	0.060611	43.769337
5742.000000	0.063019	0.060365	42.034192
5744.000000	0.060126	0.059319	41.867732
5746.000000	0.062035	0.067245	34.289366
5748.000000	0.062168	0.065509	36.278094
5750.000000	0.055137	0.054331	38.361619
5752.000000	0.058258	0.058174	33.372684
5754.000000	0.056377	0.053080	33.613905
5756.000000	0.059788	0.058371	40.476045
5758.000000	0.060788	0.064332	44.878178
5760.000000	0.059366	0.065702	44.501516
5762.000000	0.058588	0.056344	48.925465
5764.000000	0.059180	0.060773	45.124866
5766.000000	0.059446	0.060668	41.596069
5768.000000	0.058464	0.058260	39.189245
5770.000000	0.056402	0.056512	48.299432
5772.000000	0.054943	0.052297	50.748666
5774.000000	0.061419	0.061083	42.969354
5776.000000	0.056000	0.052834	42.281350
5778.000000	0.059239	0.066422	38.344512
5780.000000	0.068690	0.068468	38.319855
5782.000000	0.057561	0.054619	54.829091
5784.000000	0.061700	0.059381	51.921222
5786.000000	0.056678	0.058340	45.287135
5788.000000	0.064259	0.066109	42.544310
5790.000000	0.059264	0.064743	32.533411
5792.000000	0.061329	0.053935	46.943775
5794.000000	0.066644	0.069302	44.385096
5796.000000	0.059552	0.057121	49.232399
5798.000000	0.060547	0.056515	46.409420
5800.000000	0.061115	0.061146	33.030181
5802.000000	0.062160	0.059743	35.853700
5804.000000	0.055874	0.058250	37.092784
5806.000000	0.057306	0.057465	42.888085
5808.000000	0.056946	0.052819	43.539718
5810.000000	0.064282	0.059691	43.865430
5812.000000	0.058651	0.059382	34.086751
5814.000000	0.065553	0.062088	37.620955
5816.000000	0.058254	0.059750	35.506446
5818.000000	0.064349	0.057193	33.873902
5820.000000	0.066231	0.073194	40.017419
5822.000000	0.067534	0.061419	47.015953
5824.000000	0.062571	0.059861	52.395074
5826.000000	0.061860	0.059829	54.175356
5828.000000	0.063709	0.064603	50.470236
5830.000000	0.059534	0.056736	36.210384
5832.000000	0.064159	0.058959	44.758371
5834.000000	0.069402	0.072269	57.660895
5836.000000	0.065287	0.058230	60.140892
5838.000000	0.065354	0.056726	68.106117
5840.000000	0.067819	0.071897	67.576109
5842.000000	0.063615	0.064379	53.881449
5844.000000	0.061143	0.063995	46.539862
5846.000000	0.069180	0.069004	48.453274
5848.000000	0.062998	0.059018	46.695052
5850.000000	0.065468	0.064656	50.242926
5852.000000	0.064961	0.065174	64.911210
5854.000000	0.069100	0.072976	65.352606
5856.000000	0.064934	0.069307	63.918855
5858.000000	0.066875	0.064942	57.289405
5860.000000	0.063374	0.060407	61.359108
5862.000000	0.069133	0.072747	49.379696
5864.000000	0.059265	0.060483	62.479579
5866.000000	0.067061	0.071324	65.635007
5868.000000	0.067464	0.063106	72.149480
5870.000000	0.069943	0.069667	56.517191
5872.000000	0.071482	0.071498	66.294633
5874.000000	0.069035	0.069070	73.543496
5876.000000	0.078269	0.076504	70.163877
5878.000000	0.067001	0.062764	75.867997
5880.000000	0.069564	0.066811	81.671465
5882.000000	0.065240	0.063733	58.831537
5884.000000	0.080043	0.083458	63.619715
5886.000000	0.069501	0.068074	69.905701
5888.000000	0.080965	0.079775	75.346244
5890.000000	0.068879	0.073532	89.218147
5892.000000	0.087560	0.082162	80.355805
5894.000000	0.081485	0.076644	81.435060
5896.000000	0.076175	0.072982	83.728566
5898.000000	0.075963	0.072620	88.611025
5900.000000	0.070468	0.073866	94.241760
5902.000000	0.074968	0.079775	91.163059
5904.000000	0.075972	0.071743	101.449763
5906.000000	0.070738	0.075476	105.786687
5908.000000	0.067799	0.071481	111.437222
5910.000000	0.075866	0.074303	97.061330
5912.000000	0.074682	0.069081	127.571738
5914.000000	0.072015	0.071187	129.127340
5916.000000	0.075018	0.074103	134.047203
5918.000000	0.083780	0.081574	127.733478
5920.000000	0.081638	0.080439	143.071493
5922.000000	0.085487	0.080696	119.780952
5924.000000	0.081731	0.081797	116.618262
5926.000000	0.080538	0.084417	122.962081
5928.000000	0.080899	0.079784	127.997767
5930.000000	0.080580	0.082159	130.982602
5932.000000	0.089237	0.083863	150.071839
5934.000000	0.080171	0.085304	157.323297
5936.000000	0.079321	0.082550	165.689347
5938.000000	0.075034	0.072342	159.488982
5940.000000	0.084557	0.084250	126.525136
5942.000000	0.082438	0.080521	150.267814
5944.000000	0.086632	0.082689	156.047600
5946.000000	0.091286	0.086425	153.686765
5948.000000	0.089761	0.082473	166.353024
5950.000000	0.082675	0.079593	148.406796
5952.000000	0.089435	0.089502	166.047335
5954.000000	0.087498	0.079197	172.745497
5956.000000	0.096968	0.092213	177.441206
5958.000000	0.084974	0.084608	167.342952
5960.000000	0.095177	0.088089	145.314896
5962.000000	0.089398	0.088727	165.370394
5964.000000	0.101073	0.108701	165.331812
5966.000000	0.091569	0.092087	170.522430
5968.000000	0.088764	0.087418	151.577682
5970.000000	0.099585	0.094094	125.428371
5972.000000	0.092333	0.091362	136.933020
5974.000000	0.094290	0.086684	157.235986
5976.000000	0.087646	0.087519	157.891166
5978.000000	0.097917	0.104858	171.918884
5980.000000	0.099547	0.099264	152.304549
5982.000000	0.103076	0.103438	186.061007
5984.000000	0.095316	0.090836	194.660897
5986.000000	0.100165	0.094220	219.291900
5988.000000	0.100478	0.094586	230.540917
5990.000000	0.094789	0.087197	217.384706
5992.000000	0.094795	0.094071	217.640466
5994.000000	0.100817	0.105672	219.739050
5996.000000	0.093200	0.092782	235.447488
5998.000000	0.109013	0.111217	240.576165
6000.000000	0.103317	0.103377	223.432038
6002.000000	0.104486	0.101780	244.145802
6004.000000	0.100238	0.093676	252.582100
6006.000000	0.108914	0.102722	254.247094
6008.000000	0.098534	0.097418	229.543086
6010.000000	0.106359	0.116033	202.755550
6012.000000	0.111140	0.110471	220.484076
6014.000000	0.109802	0.106417	229.579983
6016.000000	0.104330	0.105256	228.439071
6018.000000	0.107499	0.110934	220.873361
6020.000000	0.106686	0.102269	234.887271
6022.000000	0.091441	0.097973	202.776891
6024.000000	0.097559	0.092247	193.138536
6026.000000	0.099864	0.102517	189.069511
6028.000000	0.104364	0.111738	199.798863
6030.000000	0.107215	0.113128	209.333461
6032.000000	0.109274	0.114264	176.838859
6034.000000	0.115602	0.105094	168.236368
6036.000000	0.111487	0.112432	168.530673
6038.000000	0.098959	0.093728	157.751503
6040.000000	0.116068	0.110488	168.611698
6042.000000	0.104129	0.100059	169.807635
6044.000000	0.110427	0.112447	158.030305
6046.000000	0.126900	0.131104	164.604049
6048.000000	0.121282	0.122128	139.305519
6050.000000	0.118852	0.112898	183.202346
6052.000000	0.116277	0.115714	157.740462
6054.000000	0.111882	0.102560	159.810959
6056.000000	0.100862	0.099973	154.672781
6058.000000	0.112917	0.112613	154.038945
6060.000000	0.109801	0.114018	164.259900
6062.000000	0.106737	0.107073	163.911551
6064.000000	0.123624	0.117060	176.272673
6066.000000	0.115811	0.110147	206.651109
6068.000000	0.127127	0.123546	192.208539
6070.000000	0.122124	0.117365	196.025588
6072.000000	0.116449	0.116497	217.658202
6074.000000	0.119936	0.111463	212.845377
6076.000000	0.120253	0.123074	193.954091
6078.000000	0.128105	0.124061	203.703127
6080.000000	0.131316	0.119574	226.095104
6082.000000	0.129194	0.146136	225.816618
6084.000000	0.115744	0.112098	202.227643
6086.000000	0.126622	0.127456	204.115002
6088.000000	0.121387	0.124670	197.557138
6090.000000	0.130250	0.123885	185.345206
6092.000000	0.118373	0.122781	194.401801
6094.000000	0.122230	0.126775	195.001054
6096.000000	0.125096	0.130031	213.600710
6098.000000	0.123193	0.138233	210.265274
6100.000000	0.115758	0.113583	195.257748
6102.000000	0.127520	0.129210	167.902279
6104.000000	0.127523	0.126577	170.144067
6106.000000	0.132888	0.141849	182.138670
6108.000000	0.121654	0.115252	160.206742
6110.000000	0.118867	0.125571	173.087838
6112.000000	0.135582	0.135893	138.528968
6114.000000	0.123336	0.126193	135.472386
6116.000000	0.117235	0.110842	127.774932
6118.000000	0.116167	0.110578	118.737755
6120.000000	0.122507	0.105685	125.155410
6122.000000	0.127392	0.118582	103.160234
6124.000000	0.128398	0.114686	102.030944
6126.000000	0.115575	0.104196	96.851602
6128.000000	0.115332	0.110551	80.207645
6130.000000	0.125293	0.118422	106.187163
6132.000000	0.116147	0.122265	100.676763
6134.000000	0.111286	0.108926	101.485498
6136.000000	0.127737	0.124546	93.178356
6138.000000	0.124353	0.117088	80.778054
6140.000000	0.122112	0.115335	86.277345
6142.000000	0.125834	0.128111	105.090432
6144.000000	0.128455	0.130392	86.767500
6146.000000	0.126464	0.119349	63.459515
6148.000000	0.115299	0.112383	64.905607
6150.000000	0.114396	0.109300	52.900021
6152.000000	0.122882	0.135352	67.309881
6154.000000	0.126447	0.127556	69.357035
6156.000000	0.136754	0.136368	59.734141
6158.000000	0.119301	0.123466	52.876644
6160.000000	0.130629	0.127145	49.058075
6162.000000	0.133414	0.130718	68.659652
6164.000000	0.118738	0.109747	81.315916
6166.000000	0.115056	0.115949	76.326392
6168.000000	0.117590	0.113647	79.289965
6170.000000	0.116966	0.127327	75.475278
6172.000000	0.111246	0.112352	91.141758
6174.000000	0.117244	0.119005	103.704142
6176.000000	0.124508	0.114196	109.516501
6178.000000	0.108992	0.101804	98.700401
6180.000000	0.113448	0.115495	96.862967
6182.000000	0.120595	0.120318	93.078215
6184.000000	0.113789	0.110089	99.054283
6186.000000	0.123004	0.123430	109.630303
6188.000000	0.116454	0.117397	99.651200
6190.000000	0.104357	0.105067	94.689201
6192.000000	0.109237	0.108251	81.181037
6194.000000	0.109005	0.111153	75.627228
6196.000000	0.105887	0.097982	85.154996
6198.000000	0.120255	0.110599	81.075645
6200.000000	0.100001	0.091199	73.868063
6202.000000	0.113008	0.126305	62.550841
6204.000000	0.103132	0.105349	81.261146
6206.000000	0.106636	0.105741	62.691854
6208.000000	0.102435	0.102930	70.828588
6210.000000	0.104514	0.094796	70.425476
6212.000000	0.112046	0.121109	49.499242
6214.000000	0.096920	0.098596	61.363897
6216.000000	0.108519	0.115034	57.149140
6218.000000	0.100977	0.091938	50.346673
6220.000000	0.104882	0.112281	58.688574
6222.000000	0.096603	0.103565	70.962865
6224.000000	0.096614	0.094797	78.174251
6226.000000	0.098211	0.093875	71.275439
6228.000000	0.095658	0.095292	74.486088
6230.000000	0.089383	0.095510	72.044413
6232.000000	0.089315	0.091080	63.275356
6234.000000	0.088493	0.081629	81.527382
6236.000000	0.095583	0.089670	73.008901
6238.000000	0.090867	0.096699	65.321376
6240.000000	0.091347	0.089400	73.831608
6242.000000	0.085315	0.080442	62.240202
6244.000000	0.090898	0.097143	51.054829
6246.000000	0.074619	0.070525	56.814315
6248.000000	0.090377	0.093650	45.271086
6250.000000	0.085329	0.081215	46.110114
6252.000000	0.081166	0.086754	57.794060
6254.000000	0.082145	0.077761	50.977957
6256.000000	0.088647	0.090122	54.638015
6258.000000	0.090278	0.086487	64.312599
6260.000000	0.076624	0.074620	68.809930
6262.000000	0.084450	0.080676	54.875104
6264.000000	0.084481	0.082744	56.863492
6266.000000	0.086219	0.081458	63.655194
6268.000000	0.082382	0.077662	60.138497
6270.000000	0.085531	0.087241	55.691341
6272.000000	0.082521	0.082660	59.981297
6274.000000	0.077821	0.075697	42.092580
6276.000000	0.088717	0.088323	59.234058
6278.000000	0.083575	0.079117	51.377938
6280.000000	0.082364	0.078705	54.115469
6282.000000	0.079329	0.077625	35.187394
6284.000000	0.075413	0.073018	47.894185
6286.000000	0.086589	0.090990	44.424905
6288.000000	0.076141	0.073273	38.079094
6290.000000	0.076837	0.079750	40.346281
6292.000000	0.074294	0.073528	31.316535
6294.000000	0.077574	0.076522	39.757804
6296.000000	0.070148	0.068295	39.036249
6298.000000	0.070161	0.067196	30.701248
6300.000000	0.072700	0.069762	35.663031
6302.000000	0.077619	0.077188	32.028980
6304.000000	0.063268	0.062091	35.452175
6306.000000	0.068613	0.070467	26.600167
6308.000000	0.067054	0.064218	22.342183
6310.000000	0.062134	0.062242	28.149292
6312.000000	0.069597	0.072111	22.906963
6314.000000	0.073336	0.066778	29.032598
6316.000000	0.066796	0.058266	26.883891
6318.000000	0.067056	0.060855	20.749279
6320.000000	0.059022	0.061500	21.080082
6322.000000	0.060024	0.059253	28.776885
6324.000000	0.060070	0.065910	23.196763
6326.000000	0.058230	0.058255	30.661764
6328.000000	0.063366	0.058254	35.375245
6330.000000	0.060672	0.057128	28.687392
6332.000000	0.058224	0.054801	36.597948
6334.000000	0.058975	0.060468	34.300597
6336.000000	0.058460	0.059016	32.672028
6338.000000	0.053798	0.052648	30.943836
6340.000000	0.053452	0.054364	25.132386
6342.000000	0.054521	0.054678	19.990215
6344.000000	0.051706	0.054487	26.131094
6346.000000	0.061529	0.059924	23.134656
6348.000000	0.050164	0.048800	21.572790
6350.000000	0.058377	0.054278	26.170579
6352.000000	0.051077	0.054130	19.680093
6354.000000	0.052540	0.048210	23.264270
6356.000000	0.050884	0.055018	20.997576
6358.000000	0.052383	0.052691	16.815048
6360.000000	0.047907	0.051724	22.553510
6362.000000	0.054115	0.056898	17.413417
6364.000000	0.054570	0.057264	14.973210
6366.000000	0.050243	0.050702	16.299942
6368.000000	0.054257	0.057190	13.849321
6370.000000	0.049276	0.049507	14.089349
6372.000000	0.054655	0.051783	19.306221
6374.000000	0.053146	0.050709	13.632107
6376.000000	0.048532	0.047378	21.153697
6378.000000	0.054333	0.053227	19.493211
6380.000000	0.045615	0.041095	14.462474
6382.000000	0.049685	0.054807	16.327985
6384.000000	0.047411	0.044569	15.712318
6386.000000	0.050232	0.052750	9.998402
6388.000000	0.049931	0.050211	12.962510
6390.000000	0.051538	0.050640	13.472459
6392.000000	0.048447	0.048096	6.177177
6394.000000	0.051488	0.048627	10.068200
6396.000000	0.043429	0.044716	6.554909
6398.000000	0.048111	0.047300	7.125871
6400.000000	0.046383	0.046597	7.704322
6402.000000	0.043764	0.045193	13.899541
6404.000000	0.046946	0.048140	16.813747
6406.000000	0.044853	0.042836	11.808235
6408.000000	0.045519	0.045766	15.930476
6410.000000	0.043797	0.043841	15.071098
6412.000000	0.044230	0.040572	12.255924
6414.000000	0.040749	0.040430	15.182621
6416.000000	0.042234	0.042439	9.131647
6418.000000	0.044094	0.047299	7.900468
6420.000000	0.041881	0.037907	8.342491
6422.000000	0.043225	0.040598	13.697610
6424.000000	0.041986	0.043386	11.046544
6426.000000	0.042758	0.043241	10.094933
6428.000000	0.037616	0.034002	13.477473
6430.000000	0.041811	0.040042	12.305650
6432.000000	0.043501	0.045751	11.642452
6434.000000	0.040381	0.044187	15.001375
6436.000000	0.042726	0.040394	8.808459
6438.000000	0.038059	0.038106	16.587374
6440.000000	0.035292	0.034806	12.784572
6442.000000	0.035900	0.035969	9.332386
6444.000000	0.039024	0.041431	13.907182
6446.000000	0.039024	0.037781	10.991369
6448.000000	0.038297	0.038941	9.876178
6450.000000	0.041099	0.043039	15.000535
6452.000000	0.036716	0.037587	8.332955
6454.000000	0.034403	0.036402	8.534419
6456.000000	0.035958	0.036056	8.777735
6458.000000	0.033728	0.034756	4.810170
6460.000000	0.034047	0.034062	4.158775
6462.000000	0.037778	0.039929	4.915196
6464.000000	0.037955	0.036911	4.572495
6466.000000	0.037850	0.042416	2.168934
6468.000000	0.037589	0.033384	5.442274
6470.000000	0.037153	0.036343	4.483208
6472.000000	0.037808	0.039045	2.857971
6474.000000	0.038736	0.038051	6.193370
6476.000000	0.038022	0.036363	2.540553
6478.000000	0.037618	0.038123	5.194161
6480.000000	0.035889	0.035117	7.343126
6482.000000	0.033767	0.034549	3.974648
6484.000000	0.035716	0.037600	7.458022
6486.000000	0.038694	0.040646	4.874560
6488.000000	0.033625	0.033311	5.913213
6490.000000	0.036456	0.037928	8.569316
6492.000000	0.040391	0.037674	5.615799
6494.000000	0.036392	0.036111	8.684464
6496.000000	0.034960	0.035549	7.259062
6498.000000	0.035403	0.036593	4.425885
6500.000000	0.035795	0.034828	6.035549
