

# 
# Scan parameters: power 16.000000 dBm, bandwidth 1.500000 Hz
# Frequency [MHz]	avg noise	std noise	peak value
9000.000000	0.050501	0.053446	0.315512
8990.000000	0.048021	0.045470	0.209713
8980.000000	0.052605	0.049229	0.348715
8970.000000	0.051909	0.054081	0.318559
8960.000000	0.047087	0.045061	0.862330
8950.000000	0.048042	0.050823	0.732517
8940.000000	0.051586	0.050709	0.664647
8930.000000	0.049618	0.053354	0.264868
8920.000000	0.048999	0.046956	0.238954
8910.000000	0.052809	0.048931	0.484907
8900.000000	0.049714	0.053415	0.330515
8890.000000	0.052463	0.052824	0.257844
8880.000000	0.050970	0.049945	0.267454
8870.000000	0.051560	0.051822	0.288133
8860.000000	0.052135	0.052390	1.032978
8850.000000	0.053993	0.053087	0.183670
8840.000000	0.051498	0.051632	0.232145
8830.000000	0.050732	0.045977	0.363157
8820.000000	0.048029	0.052731	0.458820
8810.000000	0.056458	0.054383	0.223895
8800.000000	0.047379	0.048166	0.394529
8790.000000	0.053968	0.059147	0.614889
8780.000000	0.054719	0.056195	0.679012
8770.000000	0.047849	0.045371	0.320520
8760.000000	0.054106	0.052025	0.314711
8750.000000	0.054576	0.051655	0.645746
8740.000000	0.048098	0.049811	0.683183
8730.000000	0.048436	0.048450	1.302639
8720.000000	0.048636	0.046258	0.520939
8710.000000	0.047347	0.052025	0.887876
8700.000000	0.047438	0.047101	0.315386
8690.000000	0.050328	0.050168	0.457511
8680.000000	0.042541	0.042510	0.333848
8670.000000	0.048259	0.044912	0.697032
8660.000000	0.047396	0.045668	0.462673
8650.000000	0.046837	0.047575	0.486785
8640.000000	0.047177	0.043935	0.497900
8630.000000	0.045740	0.045093	0.342059
8620.000000	0.039543	0.036017	0.136222
8610.000000	0.042951	0.043917	0.109876
8600.000000	0.038054	0.036927	0.233007
8590.000000	0.040816	0.042254	0.428346
8580.000000	0.038110	0.037737	0.314232
8570.000000	0.035615	0.036161	0.436193
8560.000000	0.036131	0.034527	0.190470
8550.000000	0.035049	0.035124	0.608136
8540.000000	0.033933	0.034882	0.550653
8530.000000	0.034188	0.037881	0.177937
8520.000000	0.033957	0.036026	0.162247
8510.000000	0.034337	0.041031	0.587294
8500.000000	0.032393	0.030902	0.651238
8490.000000	0.032514	0.033710	0.270632
8480.000000	0.032677	0.032495	0.162475
8470.000000	0.032439	0.033808	0.819127
8460.000000	0.038360	0.040954	0.599602
8450.000000	0.032502	0.032953	0.237783
8440.000000	0.034150	0.032674	0.443966
8430.000000	0.034341	0.033295	0.757208
8420.000000	0.038876	0.040744	0.359398
8410.000000	0.035154	0.036363	0.211244
8400.000000	0.035237	0.036222	0.170970
8390.000000	0.032983	0.033126	0.496391
8380.000000	0.032715	0.033600	0.469088
8370.000000	0.033341	0.036973	0.190470
8360.000000	0.036618	0.035806	0.288778
8350.000000	0.033826	0.032642	0.554686
8340.000000	0.038052	0.035127	0.195657
8330.000000	0.036159	0.037061	0.622467
8320.000000	0.042055	0.037879	0.336839
8310.000000	0.036141	0.036170	0.355159
8300.000000	0.038116	0.039916	0.388336
8290.000000	0.039098	0.037827	0.882268
8280.000000	0.038557	0.035219	0.792606
8270.000000	0.041227	0.037098	0.220090
8260.000000	0.044628	0.044878	0.279165
8250.000000	0.045365	0.045408	0.295423
8240.000000	0.049022	0.054768	0.270804
8230.000000	0.044271	0.041540	0.595376
8220.000000	0.045761	0.044746	0.796090
8210.000000	0.051661	0.050741	0.246642
8200.000000	0.050315	0.051087	0.157477
8190.000000	0.049390	0.047458	0.855182
8180.000000	0.042238	0.039667	0.594826
8170.000000	0.046768	0.044404	0.237508
8160.000000	0.049730	0.046589	0.301750
8150.000000	0.059700	0.057509	0.773802
8140.000000	0.055703	0.056382	0.597445
8130.000000	0.060312	0.056979	0.324786
8120.000000	0.059958	0.061052	0.500202
8110.000000	0.057555	0.049809	0.759913
8100.000000	0.060565	0.062524	1.189103
8090.000000	0.057783	0.058131	0.337319
8080.000000	0.054234	0.055256	0.261787
8070.000000	0.054844	0.052606	0.328422
8060.000000	0.062300	0.068410	0.247755
8050.000000	0.060473	0.056221	0.209836
8040.000000	0.060410	0.062426	0.304900
8030.000000	0.061857	0.061057	1.164225
8020.000000	0.063803	0.067522	0.617577
8010.000000	0.065622	0.064935	0.256270
8000.000000	0.061127	0.057168	0.702639
7990.000000	0.061636	0.061707	0.638602
7980.000000	0.056538	0.058844	0.527319
7970.000000	0.056480	0.056707	0.449474
7960.000000	0.053948	0.053598	0.311781
7950.000000	0.059359	0.057537	1.332518
7940.000000	0.062383	0.061843	0.606633
7930.000000	0.068765	0.075080	0.488255
7920.000000	0.068479	0.069124	0.952694
7910.000000	0.069268	0.063289	0.740172
7900.000000	0.067000	0.068294	0.958832
7890.000000	0.059561	0.057790	1.016178
7880.000000	0.063270	0.063565	0.294010
7870.000000	0.060048	0.065406	0.324448
7860.000000	0.059338	0.057872	0.524149
7850.000000	0.057994	0.059438	0.237982
7840.000000	0.061821	0.063699	0.246018
7830.000000	0.062615	0.062540	0.214831
7820.000000	0.063544	0.057703	0.239314
7810.000000	0.064725	0.058813	0.910865
7800.000000	0.066565	0.065613	0.303271
7790.000000	0.064339	0.062819	1.643804
7780.000000	0.061265	0.064689	0.909900
7770.000000	0.061865	0.059851	0.514155
7760.000000	0.061112	0.064462	0.327416
7750.000000	0.056492	0.056054	1.330241
7740.000000	0.057305	0.055688	0.715431
7730.000000	0.054501	0.053050	0.372380
7720.000000	0.060622	0.058431	0.397170
7710.000000	0.064170	0.062864	1.007167
7700.000000	0.064312	0.069063	1.118530
7690.000000	0.062948	0.060902	0.229483
7680.000000	0.058668	0.059614	0.337699
7670.000000	0.063084	0.062002	0.274324
7660.000000	0.054785	0.052300	0.605718
7650.000000	0.060730	0.059007	0.439966
7640.000000	0.048694	0.049411	0.622851
7630.000000	0.062805	0.061088	0.931082
7620.000000	0.057775	0.068288	0.395258
7610.000000	0.058503	0.055858	0.351297
7600.000000	0.060290	0.055497	0.390680
7590.000000	0.063014	0.064111	0.851212
7580.000000	0.058538	0.062280	0.846976
7570.000000	0.057951	0.056664	0.394891
7560.000000	0.056876	0.056736	0.345489
7550.000000	0.052106	0.050452	0.946725
7540.000000	0.055670	0.057152	1.555808
7530.000000	0.060420	0.060601	0.328174
7520.000000	0.056462	0.060325	0.464536
7510.000000	0.059472	0.060446	0.865878
7500.000000	0.059134	0.060018	0.397824
7490.000000	0.064608	0.065314	0.427480
7480.000000	0.055573	0.060975	1.739079
7470.000000	0.057450	0.058609	0.285109
7460.000000	0.057732	0.055587	0.230020
7450.000000	0.058456	0.058341	2.264215
7440.000000	0.059550	0.062445	2.546517
7430.000000	0.057138	0.054742	0.246175
7420.000000	0.055808	0.054348	0.963786
7410.000000	0.055129	0.055732	0.289883
7400.000000	0.059329	0.058372	0.280142
7390.000000	0.054443	0.061144	0.394040
7380.000000	0.059182	0.061727	0.803264
7370.000000	0.061142	0.062847	0.169821
7360.000000	0.065198	0.065890	0.227228
7350.000000	0.059092	0.062009	1.100900
7340.000000	0.055817	0.054510	0.718286
7330.000000	0.054961	0.047058	0.922600
7320.000000	0.054139	0.049996	0.811551
7310.000000	0.052935	0.050279	0.289317
7300.000000	0.059842	0.064139	0.618777
7290.000000	0.060306	0.055286	1.298677
7280.000000	0.058105	0.057087	0.554245
7270.000000	0.063164	0.064438	1.239298
7260.000000	0.061501	0.060536	1.328802
7250.000000	0.060658	0.061099	0.582851
7240.000000	0.056805	0.055224	1.734771
7230.000000	0.058125	0.055646	0.329764
7220.000000	0.058951	0.054707	0.581493
7210.000000	0.061455	0.060771	0.941777
7200.000000	0.061605	0.064697	0.453175
7190.000000	0.052593	0.049772	0.343872
7180.000000	0.052680	0.055678	0.370038
7170.000000	0.056126	0.051128	2.108123
7160.000000	0.062499	0.070502	1.608314
7150.000000	0.063639	0.061707	0.261381
7140.000000	0.060238	0.055933	0.632380
7130.000000	0.057505	0.056141	1.021971
7120.000000	0.060273	0.063770	1.601485
7110.000000	0.052344	0.056861	1.854907
7100.000000	0.059631	0.063638	1.224227
7090.000000	0.050602	0.047394	1.693616
7080.000000	0.051315	0.047992	0.696425
7070.000000	0.060928	0.069746	0.454641
7060.000000	0.051315	0.046013	0.465929
7050.000000	0.058995	0.062084	1.105557
7040.000000	0.049806	0.049095	1.761680
7030.000000	0.051409	0.052071	1.607365
7020.000000	0.051861	0.052995	0.465619
7010.000000	0.049568	0.055441	1.685388
7000.000000	0.048207	0.050237	0.913370
6990.000000	0.048558	0.050160	0.498534
6980.000000	0.050794	0.051782	0.811037
6970.000000	0.052308	0.048709	2.054699
6960.000000	0.049908	0.056220	3.446645
6950.000000	0.051433	0.059878	0.757848
6940.000000	0.054800	0.057565	0.305761
6930.000000	0.045451	0.042320	1.949349
6920.000000	0.047702	0.050260	2.173409
6910.000000	0.047656	0.052082	0.933487
6900.000000	0.043454	0.043230	0.196064
6890.000000	0.044414	0.044644	0.703336
6880.000000	0.041428	0.038642	1.903233
6870.000000	0.044787	0.046734	1.169208
6860.000000	0.042357	0.042816	0.431993
6850.000000	0.042132	0.046816	0.966467
6840.000000	0.040032	0.038353	1.534182
6830.000000	0.043947	0.041906	0.771463
6820.000000	0.043488	0.044265	0.162711
6810.000000	0.042902	0.039149	0.788569
6800.000000	0.038941	0.040691	1.545574
6790.000000	0.039428	0.041283	0.314666
6780.000000	0.038597	0.037983	0.185613
6770.000000	0.034878	0.035589	1.607063
6760.000000	0.036340	0.033610	1.312107
6750.000000	0.040869	0.045680	0.673960
6740.000000	0.036904	0.035186	1.557400
6730.000000	0.037855	0.036973	1.349205
6720.000000	0.035225	0.034670	0.732782
6710.000000	0.036291	0.033849	1.857829
6700.000000	0.039263	0.038222	1.523783
6690.000000	0.037079	0.037505	2.064779
6680.000000	0.035548	0.034635	0.988304
6670.000000	0.033337	0.032490	0.748519
6660.000000	0.034976	0.034652	0.868279
6650.000000	0.032309	0.032416	1.052638
6640.000000	0.034752	0.032283	0.544656
6630.000000	0.032371	0.032938	1.771291
6620.000000	0.033588	0.035739	2.086595
6610.000000	0.031543	0.032445	4.453193
6600.000000	0.034255	0.035456	2.286728
6590.000000	0.034712	0.032165	4.144978
6580.000000	0.033971	0.033718	2.230163
6570.000000	0.033614	0.035059	3.923039
6560.000000	0.032013	0.032778	4.476337
6550.000000	0.033433	0.035948	4.308502
6540.000000	0.035279	0.033599	3.363618
6530.000000	0.033918	0.031624	0.523253
6520.000000	0.031866	0.034473	2.582346
6510.000000	0.034951	0.036145	6.165796
6500.000000	0.034486	0.038292	5.465719
6490.000000	0.033648	0.033411	2.676621
6480.000000	0.037794	0.038797	2.717595
6470.000000	0.036566	0.037553	2.523378
6460.000000	0.035108	0.034145	2.829296
6450.000000	0.038638	0.037535	4.293800
6440.000000	0.042870	0.043657	5.459931
6430.000000	0.042733	0.045122	11.240303
6420.000000	0.040556	0.042463	7.457740
6410.000000	0.047698	0.045660	10.721453
6400.000000	0.049301	0.050032	5.965927
6390.000000	0.047768	0.043691	7.510524
6380.000000	0.056651	0.055718	12.326246
6370.000000	0.050243	0.053513	13.356394
6360.000000	0.048521	0.049296	15.901378
6350.000000	0.055031	0.054854	15.091012
6340.000000	0.057924	0.060430	18.895523
6330.000000	0.063078	0.060461	23.933577
6320.000000	0.062626	0.064586	14.901248
6310.000000	0.074458	0.075613	14.072949
6300.000000	0.066145	0.066579	21.922191
6290.000000	0.064210	0.069058	24.489883
6280.000000	0.076736	0.071878	30.814379
6270.000000	0.078598	0.087187	40.533602
6260.000000	0.083118	0.083369	34.983064
6250.000000	0.088277	0.078464	22.517051
6240.000000	0.082870	0.080058	38.436333
6230.000000	0.096080	0.088722	41.892775
6220.000000	0.099604	0.105143	27.212223
6210.000000	0.104469	0.105281	32.794309
6200.000000	0.105337	0.100979	47.413003
6190.000000	0.113699	0.122432	54.743607
6180.000000	0.122571	0.113176	73.534644
6170.000000	0.104637	0.103889	58.676991
6160.000000	0.116425	0.113033	34.351998
6150.000000	0.119023	0.120132	54.148588
6140.000000	0.115026	0.126977	81.703856
6130.000000	0.121382	0.117064	93.456244
6120.000000	0.124286	0.121572	103.771980
6110.000000	0.131408	0.149137	130.480110
6100.000000	0.131826	0.131962	152.402817
6090.000000	0.127112	0.124300	202.899091
6080.000000	0.126968	0.130902	213.670416
6070.000000	0.122047	0.122799	173.423201
6060.000000	0.108717	0.105791	133.333187
6050.000000	0.117795	0.129390	155.594390
6040.000000	0.112556	0.101811	156.117965
6030.000000	0.113132	0.119264	208.343725
6020.000000	0.101473	0.097730	230.660835
6010.000000	0.098574	0.112601	219.412687
6000.000000	0.107625	0.109908	250.986107
5990.000000	0.101072	0.099053	272.603697
5980.000000	0.095455	0.099540	178.615663
5970.000000	0.092748	0.099321	186.476038
5960.000000	0.090211	0.092807	235.898820
5950.000000	0.093012	0.096332	211.732744
5940.000000	0.084063	0.088583	178.762175
5930.000000	0.083569	0.079975	208.372708
5920.000000	0.076192	0.074883	181.850344
5910.000000	0.076638	0.076712	141.695719
5900.000000	0.073080	0.072270	109.408978
5890.000000	0.071080	0.075013	98.598085
5880.000000	0.076618	0.076688	102.368470
5870.000000	0.068274	0.073486	75.984461
5860.000000	0.068447	0.067568	70.927770
5850.000000	0.067047	0.065498	83.644991
5840.000000	0.059223	0.062407	77.737969
5830.000000	0.055106	0.059203	48.600572
5820.000000	0.060160	0.060692	45.135822
5810.000000	0.060509	0.067284	40.517192
5800.000000	0.054704	0.053602	39.495147
5790.000000	0.058405	0.058845	43.004288
5780.000000	0.054695	0.049741	59.246449
5770.000000	0.061939	0.056524	53.894037
5760.000000	0.060124	0.062988	58.464248
5750.000000	0.061024	0.061658	52.972965
5740.000000	0.057961	0.055852	56.838065
5730.000000	0.058267	0.058235	69.644115
5720.000000	0.061985	0.061075	40.263060
5710.000000	0.062237	0.061432	44.177444
5700.000000	0.069274	0.067166	44.663961
5690.000000	0.058827	0.060148	36.306284
5680.000000	0.052463	0.051333	35.740867
5670.000000	0.064423	0.066207	34.431069
5660.000000	0.063053	0.064094	37.510459
5650.000000	0.061452	0.065881	25.684569
5640.000000	0.065341	0.068957	27.498719
5630.000000	0.057985	0.059199	19.029318
5620.000000	0.062030	0.057765	19.145573
5610.000000	0.069861	0.069738	24.983359
5600.000000	0.061499	0.064364	20.125085
5590.000000	0.072937	0.075613	26.593123
5580.000000	0.070552	0.072056	30.520252
5570.000000	0.067654	0.069847	30.406578
5560.000000	0.069170	0.070718	32.547826
5550.000000	0.070949	0.066913	28.025941
5540.000000	0.072032	0.068938	19.667378
5530.000000	0.077712	0.072392	20.370652
5520.000000	0.087894	0.087177	15.332407
5510.000000	0.080489	0.081064	22.034239
5500.000000	0.076565	0.075598	31.592892
5490.000000	0.070143	0.070911	21.050987
5480.000000	0.082474	0.088403	26.031093
5470.000000	0.089554	0.088862	25.298023
5460.000000	0.089420	0.087232	25.485146
5450.000000	0.074764	0.074208	25.874642
5440.000000	0.088513	0.088377	20.365559
5430.000000	0.084816	0.084047	24.116436
5420.000000	0.082909	0.076391	31.565443
5410.000000	0.083909	0.086106	18.487182
5400.000000	0.091736	0.086820	27.460434
5390.000000	0.087989	0.088245	25.468750
5380.000000	0.095532	0.107297	22.226417
5370.000000	0.093231	0.084224	31.306487
5360.000000	0.099406	0.102283	29.861863
5350.000000	0.103119	0.107015	31.792780
5340.000000	0.094770	0.092908	33.009616
5330.000000	0.094578	0.100338	21.599329
5320.000000	0.104841	0.098942	28.018467
5310.000000	0.098961	0.094132	25.214084
5300.000000	0.111545	0.104661	18.979701
5290.000000	0.113438	0.112145	18.724735
5280.000000	0.098647	0.097648	26.257079
5270.000000	0.116508	0.118039	22.287092
5260.000000	0.127711	0.123636	33.266655
5250.000000	0.120275	0.122296	30.191402
5240.000000	0.131257	0.128326	35.892083
5230.000000	0.129485	0.131005	27.720237
5220.000000	0.119642	0.115713	42.644291
5210.000000	0.132439	0.125936	28.273403
5200.000000	0.141801	0.149768	51.228974
5190.000000	0.133286	0.120631	46.631921
5180.000000	0.126501	0.127996	53.438580
5170.000000	0.130537	0.127420	29.370385
5160.000000	0.143015	0.143186	36.376010
5150.000000	0.149999	0.149245	35.789255
5140.000000	0.157659	0.146928	24.291076
5130.000000	0.142872	0.135108	9.858756
5120.000000	0.133001	0.120947	14.217573
5110.000000	0.153501	0.151306	13.270037
5100.000000	0.128299	0.137256	6.497218
5090.000000	0.146399	0.142681	15.892145
5080.000000	0.143956	0.147364	8.089669
5070.000000	0.127601	0.118952	20.945700
5060.000000	0.120746	0.125255	10.091006
5050.000000	0.102379	0.098154	18.280486
5040.000000	0.114928	0.113082	21.979817
5030.000000	0.121870	0.124116	27.068858
5020.000000	0.123276	0.123330	37.411903
5010.000000	0.108052	0.109627	22.250391
5000.000000	0.100199	0.089804	38.284482
