

# HP for excitation
# Scan parameters: power 16.000000 dBm, bandwidth 1.500000 Hz
# Frequency [MHz]	avg noise	std noise	peak value
3000.000000	211.758280	201.508578	9199.218306
3010.000000	200.388139	191.237388	5548.420391
3020.000000	217.581318	225.258414	5059.169192
3030.000000	214.248371	212.995339	5790.076501
3040.000000	201.220213	191.825685	4735.946830
3050.000000	219.580376	247.201915	7999.204766
3060.000000	218.966236	227.088207	5537.806487
3070.000000	231.779199	221.146930	4787.696711
3080.000000	235.770326	259.081385	2996.892895
3090.000000	239.385278	237.884213	5487.005804
3100.000000	210.634012	233.351120	8140.882211
3110.000000	218.950883	212.218113	7085.626533
3120.000000	227.580997	240.415315	7365.562622
3130.000000	200.773815	201.350169	8040.493945
3140.000000	202.076582	185.010283	6416.645399
3150.000000	188.505640	191.356456	6441.841962
3160.000000	222.149641	247.428843	5245.264936
3170.000000	207.620102	207.645225	4943.951139
3180.000000	189.106586	189.263997	9761.507305
3190.000000	216.332343	232.166829	5272.294242
3200.000000	213.229300	228.814534	5464.878750
3210.000000	213.660028	216.601211	6321.009872
3220.000000	210.374310	200.140403	5377.026641
3230.000000	224.301250	226.471974	5392.332927
3240.000000	200.912848	205.968053	4840.410688
3250.000000	203.649592	205.439303	8525.077807
3260.000000	201.955521	190.240740	7401.723417
3270.000000	187.905797	190.099220	5817.137089
3280.000000	214.652989	197.518119	7558.690657
3290.000000	209.109440	226.925289	8132.990892
3300.000000	214.488143	211.996065	6635.291065
3310.000000	217.346416	204.188992	5357.925726
3320.000000	246.365476	239.828132	6310.897621
3330.000000	223.481588	221.121385	3389.082489
3340.000000	217.466875	227.460830	7057.248189
3350.000000	237.215118	233.663059	3308.349016
3360.000000	241.401803	284.726890	5232.109770
3370.000000	229.703450	236.134351	4634.305386
3380.000000	256.209951	268.318518	4761.631210
3390.000000	284.945379	295.719779	5192.452906
3400.000000	279.832570	273.189582	3340.416381
3410.000000	297.747432	324.977388	2747.558192
3420.000000	266.491795	247.534925	4080.674301
3430.000000	293.859803	305.242640	7221.857364
3440.000000	272.876511	271.320360	4651.800345
3450.000000	306.770042	277.477049	4847.450981
3460.000000	347.166488	343.680210	7109.160198
3470.000000	353.786474	363.608211	4407.184495
3480.000000	362.946986	342.546953	7975.193767
3490.000000	378.546573	387.385615	4335.148649
3500.000000	379.495964	355.770624	3191.246579
3510.000000	446.898899	471.515763	3855.449092
3520.000000	388.893865	369.391952	8586.975014
3530.000000	396.850086	407.553903	3833.498510
3540.000000	415.331680	405.265588	13706.885972
3550.000000	439.472394	433.771329	4093.856884
3560.000000	449.899560	458.404257	4220.735274
3570.000000	474.921587	454.161588	5465.159302
3580.000000	504.131122	481.606082	6474.968369
3590.000000	393.846385	362.014408	6921.353263
3600.000000	456.361974	446.750579	5131.319654
3610.000000	439.920807	458.955410	4836.482850
3620.000000	422.885297	422.607355	4951.080282
3630.000000	455.162323	447.808591	6794.687608
3640.000000	416.196080	412.077255	6811.312215
3650.000000	430.253343	402.597664	4506.029109
3660.000000	373.348136	376.453211	1881.013545
3670.000000	403.725294	426.152318	5581.501042
3680.000000	361.813707	368.854246	5715.977454
3690.000000	346.755877	387.313161	5192.569193
3700.000000	332.299195	329.025009	11364.885504
3710.000000	407.827147	377.757355	4923.970938
3720.000000	396.666008	407.878113	8383.027872
3730.000000	392.099689	402.764957	2795.930348
3740.000000	407.829322	379.638918	4049.653716
3750.000000	422.191677	387.949933	3568.850105
3760.000000	442.406677	409.739958	5876.378289
3770.000000	392.080267	373.091014	5827.580975
3780.000000	374.059752	388.911140	7595.124060
3790.000000	393.485007	413.804671	1731.847186
3800.000000	455.164819	471.075035	3938.671773
3810.000000	481.058961	508.874653	4997.267149
3820.000000	413.766781	424.534579	4967.521872
3830.000000	504.239356	478.509668	3046.873309
3840.000000	473.857225	449.126985	4300.908990
3850.000000	506.738632	519.525492	3787.461548
3860.000000	520.209143	478.873522	3703.018666
3870.000000	518.883085	533.151835	2521.091883
3880.000000	484.052163	434.296625	3129.165571
3890.000000	535.786035	514.610448	3724.139063
3900.000000	583.089600	653.528487	3388.499490
3910.000000	610.912998	603.000375	3224.288060
3920.000000	571.168120	553.600630	3464.679424
3930.000000	592.142034	580.756998	5641.501170
3940.000000	670.317822	649.492642	3560.799156
3950.000000	714.432002	743.328611	4646.551562
3960.000000	649.093548	678.657755	3770.305719
3970.000000	621.542170	687.525436	4642.937019
3980.000000	635.939514	666.518246	2456.533061
3990.000000	671.988141	673.821991	3598.199482
4000.000000	679.713879	649.373771	2939.530869
4010.000000	617.985665	716.983408	3437.935437


# Cont
# Scan parameters: power 16.000000 dBm, bandwidth 1.500000 Hz
# Frequency [MHz]	avg noise	std noise	peak value
4020.000000	648.702071	652.808350	4155.444999
4030.000000	653.143716	605.227974	5113.599877
4040.000000	678.193083	653.298346	6651.345633
4050.000000	667.403133	602.229478	2749.625157
4060.000000	627.629966	587.603142	3432.954765
4070.000000	580.862872	593.551445	4071.132548
4080.000000	581.384843	597.172441	2951.406124
4090.000000	545.427354	494.365734	3316.139216
4100.000000	565.533180	581.546008	3140.880428
4110.000000	540.739995	662.145895	2185.153892
4120.000000	526.984313	512.400859	2322.377924
4130.000000	534.904099	621.188797	6029.162914
4140.000000	517.636739	516.774057	3928.906698
4150.000000	501.513185	486.967149	1474.636817
4160.000000	524.882508	525.127645	2010.676703
4170.000000	486.108475	468.362265	2539.388785
4180.000000	489.711765	520.142983	3603.496714
4190.000000	449.398958	440.335517	1862.320234
4200.000000	480.328970	480.911381	2192.398830
4210.000000	483.724736	502.837949	1933.100919
4220.000000	442.685263	416.122433	2801.599522
4230.000000	443.508083	414.117837	2638.206264
4240.000000	485.357706	472.995447	1765.835681
4250.000000	490.158008	504.056466	2647.722572
4260.000000	491.720311	464.604526	3432.959645
4270.000000	473.609734	475.044384	2315.702608
4280.000000	538.119212	550.222793	2971.992702
4290.000000	493.232635	451.819169	2390.170464
4300.000000	482.470032	491.420230	2177.774181
4310.000000	548.080447	466.372846	2471.674075
4320.000000	583.719876	616.136113	3345.106824
4330.000000	510.298338	543.219442	4275.031354
4340.000000	588.711066	567.267306	3028.826896
4350.000000	540.243880	551.676442	2354.817101
4360.000000	544.702667	561.648230	1981.564782
4370.000000	617.121231	560.878234	3414.973452
4380.000000	581.920353	635.286358	3796.894751
4390.000000	589.440523	597.601195	2791.822041
4400.000000	678.114873	631.582582	2752.639306
4410.000000	632.096702	619.033983	3712.531061
4420.000000	674.465875	733.882784	3967.959513
4430.000000	744.959469	771.794852	3845.494381
4440.000000	649.361544	688.480509	3955.574600
4450.000000	652.853054	643.892770	3276.644544
4460.000000	669.435093	686.317934	3003.104791
4470.000000	802.390426	779.889855	3135.038355
4480.000000	757.652722	770.422815	2982.094478
4490.000000	748.198964	762.554354	3338.480351
4500.000000	791.211411	810.528813	4169.879029
4510.000000	743.337044	691.531324	4897.843435
4520.000000	827.502490	814.902326	4550.634109
4530.000000	830.982745	775.046333	4617.572489
4540.000000	686.660652	662.513226	7091.466072
4550.000000	821.529085	806.802536	3294.317333
4560.000000	720.268966	742.023676	3956.471803
4570.000000	725.352311	713.316473	4636.292434
4580.000000	788.562361	775.579322	4488.778788
4590.000000	756.338386	739.392975	3541.620354
4600.000000	798.776899	757.878569	5553.488563
4610.000000	752.545219	854.326680	6099.017365
4620.000000	818.082508	843.282295	3581.296772
4630.000000	783.708739	794.567708	3122.714724
4640.000000	859.287730	870.155653	3253.436012
4650.000000	783.773884	748.396494	3863.372722
4660.000000	763.721721	821.072577	3632.093794
4670.000000	759.508313	745.823453	2736.754813
4680.000000	745.161171	819.082903	5467.926770
4690.000000	813.658103	794.883219	3545.654716
4700.000000	798.418977	795.025225	3086.353018
4710.000000	764.136726	698.095855	5944.899239
4720.000000	773.631256	792.701576	3651.880792
4730.000000	759.782746	857.224173	4350.617957
4740.000000	778.967062	774.950068	3933.152036
4750.000000	790.977099	782.957496	4411.436256
4760.000000	796.528007	812.826011	5169.031182
4770.000000	764.101431	744.063425	2423.428614
4780.000000	824.377637	772.765940	5107.005228
4790.000000	734.923199	761.120056	4870.421516
4800.000000	816.793406	842.262490	3932.450741
4810.000000	764.696680	784.884826	5329.166210
4820.000000	883.251519	866.066775	4376.771485
4830.000000	856.645951	865.350410	3477.970987
4840.000000	887.165377	853.762762	2973.220018
4850.000000	874.270035	930.301494	6799.463319
4860.000000	997.714372	932.062726	4795.770335
4870.000000	976.452994	998.321780	4495.020276
4880.000000	951.574727	976.020887	4557.905436
4890.000000	1034.671470	1027.933267	4489.845616
4900.000000	912.411143	886.165089	4914.987513
4910.000000	1011.871533	966.961791	6297.245473
4920.000000	1034.663690	1001.117443	5797.169513
4930.000000	1066.770854	1074.408447	10251.986684
4940.000000	1003.835371	1063.261091	5240.767996
4950.000000	1044.668882	1094.853789	6743.803389
4960.000000	1022.848521	961.992425	6830.367702
4970.000000	1187.001282	1143.800775	4286.684981
4980.000000	1080.947578	1153.901506	6306.438265
4990.000000	1066.952489	1083.796774	5877.817472
5000.000000	1021.763141	1043.341514	3929.089842
5010.000000	1024.345642	1010.623236	3393.778107
5020.000000	1154.830917	1170.281078	5665.113877
5030.000000	1151.156992	1153.775474	5578.145032
5040.000000	1130.000668	1167.143298	6050.494025
5050.000000	1006.689521	965.710961	5140.567664
5060.000000	1253.155291	1212.319874	7916.500688
5070.000000	1193.063956	1240.982958	7684.552251
5080.000000	1219.465649	1235.173079	9908.898511
5090.000000	1270.032715	1227.790177	13738.878584
5100.000000	1424.684163	1488.162194	5768.595686
5110.000000	1292.588161	1248.945423	3699.638140
5120.000000	1320.820572	1384.634116	8433.988533
5130.000000	1337.629617	1303.136543	9664.527658
5140.000000	1495.369515	1555.184730	12062.905578
5150.000000	1415.014179	1415.491493	7087.237642
5160.000000	1451.206373	1446.884203	5124.717798
5170.000000	1358.792529	1401.289762	6792.591809
5180.000000	1278.732300	1357.611438	4256.703704
5190.000000	1520.135995	1528.987546	7208.179950
5200.000000	1393.896393	1428.859899	7191.240169
5210.000000	1254.425778	1174.323987	6282.228325
5220.000000	1176.630753	1074.376480	4985.726991
5230.000000	1209.592686	1199.193888	6266.711909
5240.000000	1276.832771	1446.437873	5727.166217
5250.000000	1241.803848	1359.833249	4699.920708
5260.000000	1184.207807	1183.952845	5433.452876
5270.000000	1008.814874	1009.983805	6196.125094
5280.000000	1013.136086	1019.580502	6850.278819
5290.000000	1188.733976	1234.316407	5009.844597
5300.000000	1045.660148	1045.435203	6845.623035
5310.000000	953.796020	991.461562	8760.611537
5320.000000	929.009317	878.596621	6181.798285
5330.000000	974.094936	973.538319	4630.559343
5340.000000	894.484522	885.081232	3810.495652
5350.000000	973.642309	1073.535108	5991.154102
5360.000000	931.084123	944.548014	10209.828373
5370.000000	824.559322	801.730502	9016.930607
5380.000000	939.915085	935.518308	5987.142567
5390.000000	830.746334	935.486475	2617.418748
5400.000000	887.635836	878.666608	3678.031412
5410.000000	831.872397	855.805574	5180.685685
5420.000000	857.589978	837.501659	5038.678250
5430.000000	765.765555	699.802366	3365.252588
5440.000000	787.338673	746.148854	4526.439388
5450.000000	830.005734	845.746918	2733.976165
5460.000000	833.095624	773.449765	5219.670954
5470.000000	741.242428	701.405064	3136.772873
5480.000000	730.127397	681.321528	4360.647538
5490.000000	742.633703	781.797961	4340.608483
5500.000000	714.227069	683.737430	6201.904872
5510.000000	818.675349	773.320217	2315.084212
5520.000000	851.003012	856.148899	5743.912922
5530.000000	800.189404	847.900407	4488.351767
5540.000000	703.176483	659.767721	3296.204349
5550.000000	800.832248	806.752715	5332.921304
5560.000000	636.223573	671.900796	2669.500149
5570.000000	653.450511	611.100226	2808.491983
5580.000000	682.951559	712.046096	2887.811392
5590.000000	634.002253	607.465714	4291.664756
5600.000000	611.312172	591.109728	2580.030007
5610.000000	622.921619	578.745642	4198.389256
5620.000000	617.424037	612.249080	5071.749497
5630.000000	600.880260	602.854316	4054.547497
5640.000000	686.359324	704.583054	2558.209395
5650.000000	588.470760	590.476245	2925.125474
5660.000000	575.049696	618.463583	3565.569402
5670.000000	617.610267	601.312500	2552.202322
5680.000000	575.763508	528.731690	5439.405302
5690.000000	586.025401	565.407012	4456.494381
5700.000000	525.791890	542.892393	4088.682525
5710.000000	594.703763	578.997209	2646.330671
5720.000000	507.234947	546.297369	5230.175334
5730.000000	556.852044	591.661339	6562.842438
5740.000000	593.803955	594.906910	4140.821065
5750.000000	553.149268	568.600352	3088.058351
5760.000000	536.920324	523.456140	3342.884395
5770.000000	596.945850	556.373999	2610.940474
5780.000000	577.451070	575.121362	6226.805423
5790.000000	451.242454	478.576026	2220.481149
5800.000000	504.898701	504.557912	2478.296511
5810.000000	425.599295	496.324704	4961.329057
5820.000000	569.927558	542.676833	2105.844827
5830.000000	598.474560	586.149929	3419.339020
5840.000000	608.215060	607.371384	6012.027469
5850.000000	644.069350	624.029540	2740.900918
5860.000000	655.406311	632.769647	4323.693336
5870.000000	643.692165	675.991455	3511.886587
5880.000000	769.698811	734.665563	4371.588442
5890.000000	749.471000	773.658621	6530.537566
5900.000000	715.452731	716.003765	4095.529333
5910.000000	714.758741	626.800935	5728.103984
5920.000000	698.616526	637.953400	10073.371028
5930.000000	757.772321	792.115180	3616.551153
5940.000000	825.953338	917.032182	4442.759029
5950.000000	898.323981	1046.162123	2778.762986
5960.000000	840.428139	965.381366	4503.578855
5970.000000	810.168081	862.391321	3247.314223
5980.000000	958.703021	942.494649	3781.562652
5990.000000	1029.065849	968.519344	5516.967327
6000.000000	987.194564	954.352242	2910.477670
