

# Extended sweep range
# Scan parameters: power 16.000000 dBm, bandwidth 1.500000 Hz
# Frequency [MHz]	avg noise	std noise	peak value
5500.000000	0.066966	0.070885	22.347269
5510.000000	0.064925	0.069640	31.923035
5520.000000	0.084946	0.087885	32.836424
5530.000000	0.076480	0.073920	33.430552
5540.000000	0.068729	0.065706	25.020560
5550.000000	0.069877	0.069397	23.367703
5560.000000	0.066571	0.070546	22.811062
5570.000000	0.061630	0.061381	23.124937
5580.000000	0.065307	0.068252	35.617403
5590.000000	0.064124	0.064657	32.797273
5600.000000	0.054014	0.051879	35.309722
5610.000000	0.066403	0.068044	29.299992
5620.000000	0.060032	0.063860	33.109746
5630.000000	0.060871	0.060630	42.130681
5640.000000	0.057807	0.058817	37.143403
5650.000000	0.054540	0.052133	36.583458
5660.000000	0.054602	0.053957	38.938805
5670.000000	0.061593	0.063239	36.918099
5680.000000	0.053818	0.053686	31.915158
5690.000000	0.059559	0.058405	45.218875
5700.000000	0.053825	0.053824	39.828943
5710.000000	0.056142	0.053500	48.814613
5720.000000	0.052727	0.049791	55.469714
5730.000000	0.063141	0.060716	61.746243


# 
# Scan parameters: power 16.000000 dBm, bandwidth 1.500000 Hz
# Frequency [MHz]	avg noise	std noise	peak value
4500.000000	0.073724	0.072337	1.944883
4510.000000	0.075538	0.070111	0.620699
4520.000000	0.075780	0.073782	4.231188
4530.000000	0.074359	0.078095	2.342637
4540.000000	0.075405	0.075890	4.319470
4550.000000	0.075499	0.069788	5.556750
4560.000000	0.072110	0.072310	1.487432
4570.000000	0.073643	0.065736	8.710996
4580.000000	0.069597	0.069901	7.749397
4590.000000	0.079841	0.076293	5.691575
4600.000000	0.087003	0.090639	4.834374
4610.000000	0.072629	0.070597	0.869730
4620.000000	0.073599	0.076522	0.434266
4630.000000	0.080944	0.089953	0.290083
4640.000000	0.076823	0.079630	6.359494
4650.000000	0.075900	0.076939	14.639936
4660.000000	0.077003	0.067497	12.616917
4670.000000	0.071733	0.068563	14.491373
4680.000000	0.070115	0.069477	17.107401
4690.000000	0.077611	0.075133	15.672945
4700.000000	0.068253	0.067570	16.050061
4710.000000	0.066426	0.062454	12.984760
4720.000000	0.071403	0.070120	11.293304
4730.000000	0.072533	0.072462	21.839892
4740.000000	0.065876	0.066793	10.927062
4750.000000	0.075368	0.080472	7.892616
4760.000000	0.063268	0.062225	4.471310
4770.000000	0.065461	0.062821	5.225340
4780.000000	0.079895	0.097136	0.402076
4790.000000	0.078378	0.075383	3.478755
4800.000000	0.073331	0.073409	1.556445
4810.000000	0.082125	0.077189	6.199487
4820.000000	0.087809	0.084868	2.826634
4830.000000	0.082364	0.081931	3.224386
4840.000000	0.078852	0.082376	5.622028
4850.000000	0.084706	0.076823	6.694869
4860.000000	0.085865	0.076783	9.062649
4870.000000	0.085174	0.082539	3.902125
4880.000000	0.084328	0.078697	7.791784
4890.000000	0.083242	0.088916	13.281161
4900.000000	0.091389	0.084718	14.498147
4910.000000	0.089733	0.092756	21.232896
4920.000000	0.096705	0.097730	8.162025
4930.000000	0.099054	0.097971	20.005850
4940.000000	0.101736	0.109241	12.406625
4950.000000	0.091383	0.089094	15.672405
4960.000000	0.094733	0.094880	9.803015
4970.000000	0.097523	0.099358	12.866394
4980.000000	0.115244	0.108427	10.595950
4990.000000	0.095129	0.095787	13.875379
5000.000000	0.101434	0.106276	22.729102
5010.000000	0.106831	0.112749	21.838516
5020.000000	0.106342	0.098650	21.800345
5030.000000	0.105088	0.103731	17.289854
5040.000000	0.114444	0.101758	12.397432
5050.000000	0.103635	0.108791	12.394282
5060.000000	0.107650	0.108357	23.279069
5070.000000	0.111614	0.108696	15.249432
5080.000000	0.117278	0.111951	8.099198
5090.000000	0.116163	0.113317	19.441010
5100.000000	0.115175	0.115210	12.219501
5110.000000	0.121260	0.112984	17.382354
5120.000000	0.116615	0.115273	23.654099
5130.000000	0.133780	0.129112	22.350200
5140.000000	0.135389	0.141435	18.620810
5150.000000	0.120542	0.130949	26.052358
5160.000000	0.130257	0.128587	23.427762
5170.000000	0.113063	0.118124	23.073136
5180.000000	0.120154	0.114783	30.844331
5190.000000	0.125271	0.121511	29.020544
5200.000000	0.115777	0.115431	16.766542
5210.000000	0.117603	0.127137	18.261430
5220.000000	0.109387	0.119301	15.249908
5230.000000	0.109076	0.112640	22.623389
5240.000000	0.117288	0.128786	20.834873
5250.000000	0.109987	0.113990	17.979740
5260.000000	0.113646	0.108347	23.312535
5270.000000	0.090880	0.093760	27.834596
5280.000000	0.097163	0.101918	18.200599
5290.000000	0.093255	0.085717	16.795500
5300.000000	0.091684	0.095275	18.126577
5310.000000	0.095311	0.117224	21.806307
5320.000000	0.086405	0.091893	17.410701
5330.000000	0.089374	0.095928	31.915924
5340.000000	0.093224	0.094727	21.644421
5350.000000	0.091510	0.095477	31.252206
5360.000000	0.092984	0.090591	23.221922
5370.000000	0.080746	0.073361	26.171421
5380.000000	0.082087	0.082937	24.930432
5390.000000	0.090947	0.086490	24.572873
5400.000000	0.084914	0.076687	28.918978
5410.000000	0.082736	0.087039	17.008575
5420.000000	0.077788	0.079894	19.558698
5430.000000	0.071292	0.074803	24.822280
5440.000000	0.080747	0.078267	16.365501
5450.000000	0.079514	0.083315	20.785030
5460.000000	0.072385	0.068912	20.555255
5470.000000	0.073301	0.077995	19.695901
5480.000000	0.066146	0.066722	22.918259
5490.000000	0.075488	0.071099	23.542115
5500.000000	0.073490	0.071431	23.032637
5510.000000	0.073616	0.069634	27.172294
5520.000000	0.088071	0.088341	31.156097
5530.000000	0.070395	0.064090	24.258870
5540.000000	0.068834	0.069640	25.514091
5550.000000	0.068769	0.069111	27.533632
5560.000000	0.069533	0.068673	27.923613
5570.000000	0.063147	0.062733	22.280356
5580.000000	0.066010	0.064329	31.546915
5590.000000	0.056683	0.054561	35.793990
5600.000000	0.059133	0.064330	29.772514
5610.000000	0.063721	0.065740	36.835803
5620.000000	0.061089	0.060199	32.051530
5630.000000	0.056399	0.055408	39.762350
5640.000000	0.063364	0.065033	31.264605
5650.000000	0.059873	0.059648	31.404317
5660.000000	0.057213	0.063058	34.377032
5670.000000	0.062029	0.060347	33.173071
5680.000000	0.062949	0.063614	41.273559
5690.000000	0.059740	0.061553	46.513533
5700.000000	0.058909	0.061030	42.064735
5710.000000	0.064568	0.070146	41.531587
5720.000000	0.060728	0.055758	47.699587
5730.000000	0.056602	0.061421	53.180185
5740.000000	0.057818	0.057589	45.484583
5750.000000	0.057768	0.056252	49.146079
5760.000000	0.057529	0.052792	51.641194
5770.000000	0.058043	0.055829	63.198598
5780.000000	0.055695	0.056732	60.679841
5790.000000	0.061593	0.065588	64.822436
5800.000000	0.061725	0.059468	57.449329
5810.000000	0.058648	0.060283	50.874742
5820.000000	0.058600	0.055823	71.515777
5830.000000	0.061188	0.064295	78.268723
5840.000000	0.056455	0.053239	75.375607
5850.000000	0.065988	0.064279	79.507881
5860.000000	0.067031	0.070672	87.420166
5870.000000	0.066296	0.065897	104.462149
5880.000000	0.075681	0.077567	86.972622
5890.000000	0.070913	0.074482	114.424152
5900.000000	0.072769	0.067516	132.799263
5910.000000	0.067903	0.074834	111.364320
5920.000000	0.073997	0.077046	146.212571
5930.000000	0.073883	0.072825	142.093740
5940.000000	0.082291	0.088259	149.076865
5950.000000	0.085244	0.078597	132.774961
5960.000000	0.083371	0.087575	163.275395
5970.000000	0.086349	0.092778	129.285002
5980.000000	0.090917	0.096602	155.561691
5990.000000	0.090893	0.089845	187.008610
6000.000000	0.091822	0.094437	182.519676
6010.000000	0.091513	0.091718	172.961753
6020.000000	0.103794	0.101340	155.759639
6030.000000	0.095921	0.095745	161.112059
6040.000000	0.096214	0.087899	125.309132
6050.000000	0.099155	0.096561	146.681555
6060.000000	0.114451	0.108764	167.448680
6070.000000	0.111023	0.109545	162.000339
6080.000000	0.109887	0.104779	196.852063
6090.000000	0.126838	0.141491	146.699742
6100.000000	0.115625	0.121814	145.489234
6110.000000	0.111933	0.107734	95.410758
6120.000000	0.102319	0.092407	62.236327
6130.000000	0.112883	0.107225	75.358138
6140.000000	0.096089	0.095041	65.742487
6150.000000	0.114211	0.115945	81.119650
6160.000000	0.107070	0.103784	78.485510
6170.000000	0.103927	0.102180	93.183833
6180.000000	0.098598	0.095728	109.767392
6190.000000	0.101014	0.105110	72.377810
6200.000000	0.086907	0.082267	75.293888
6210.000000	0.095382	0.092037	74.104730
6220.000000	0.080525	0.079796	50.157355
6230.000000	0.085333	0.084872	54.987721
6240.000000	0.074838	0.075552	47.720236
6250.000000	0.084211	0.073057	44.045521
6260.000000	0.079297	0.091400	42.127662
6270.000000	0.073242	0.072790	46.670204
6280.000000	0.075060	0.073223	31.482985
6290.000000	0.070033	0.070853	27.705138
6300.000000	0.062633	0.059493	37.535559
6310.000000	0.063260	0.061071	22.929293
6320.000000	0.054781	0.054588	35.633764
6330.000000	0.058949	0.060375	29.381791
6340.000000	0.050111	0.052467	31.149791
6350.000000	0.047740	0.046537	35.999343
6360.000000	0.050882	0.055132	25.194265
6370.000000	0.045529	0.045100	25.935709
6380.000000	0.047507	0.045481	22.489200
6390.000000	0.043705	0.040838	16.224299
6400.000000	0.043999	0.045139	10.436911
6410.000000	0.042583	0.044250	17.055955
6420.000000	0.040254	0.043798	14.622264
6430.000000	0.039962	0.040382	10.989003
6440.000000	0.036821	0.035028	10.357463
6450.000000	0.037849	0.039717	7.259854
6460.000000	0.034349	0.032879	2.653760
6470.000000	0.032023	0.035010	3.887878
6480.000000	0.033632	0.029632	4.563112
6490.000000	0.035153	0.033704	8.022669
6500.000000	0.034136	0.033439	8.490379
6510.000000	0.034110	0.031154	7.772914
6520.000000	0.033966	0.036989	5.032640
6530.000000	0.029286	0.029595	2.291333
6540.000000	0.032503	0.034394	5.594552
6550.000000	0.032674	0.030988	6.783495
6560.000000	0.031326	0.033790	4.756035
6570.000000	0.031412	0.033233	6.797824
6580.000000	0.034109	0.032076	7.219301
6590.000000	0.034810	0.037436	10.183120
6600.000000	0.032148	0.032222	5.688636
6610.000000	0.032440	0.030141	4.321435
6620.000000	0.034414	0.033017	5.177979
6630.000000	0.033299	0.032276	3.652435
6640.000000	0.031280	0.030381	5.860002
6650.000000	0.035415	0.036000	4.484864
6660.000000	0.035479	0.036701	2.327976
6670.000000	0.032271	0.028722	3.683792
6680.000000	0.030848	0.028154	3.484483
6690.000000	0.034764	0.037598	2.626668
6700.000000	0.036509	0.035136	1.926435
6710.000000	0.033430	0.034198	2.256756
6720.000000	0.036167	0.037842	5.123556
6730.000000	0.038949	0.041572	1.832316
6740.000000	0.038569	0.038464	3.464654
6750.000000	0.036734	0.038949	2.691424
6760.000000	0.036724	0.038433	2.025882
6770.000000	0.037251	0.038534	1.004964
6780.000000	0.035935	0.032578	1.528542
6790.000000	0.036076	0.037954	2.300221
6800.000000	0.042071	0.043292	2.209850
6810.000000	0.041323	0.039099	1.828430
6820.000000	0.043676	0.049005	1.768072
6830.000000	0.039934	0.038698	1.086464
6840.000000	0.039415	0.039123	1.150571
6850.000000	0.042590	0.042205	1.993690
6860.000000	0.043727	0.046124	1.170693
6870.000000	0.040608	0.037564	1.652427
6880.000000	0.040294	0.037644	1.268845
6890.000000	0.044910	0.043405	2.269073
6900.000000	0.046336	0.041485	3.244209
6910.000000	0.041688	0.043262	0.711567
6920.000000	0.044166	0.041181	1.042390
6930.000000	0.046946	0.044042	2.909687
6940.000000	0.047355	0.041580	3.517415
6950.000000	0.053367	0.059902	1.168611
6960.000000	0.051153	0.049755	1.911587
6970.000000	0.049223	0.049013	1.909699
6980.000000	0.053344	0.054461	3.433025
6990.000000	0.051181	0.054672	0.875532
7000.000000	0.056844	0.052493	1.259221
7010.000000	0.051599	0.054068	1.346624
7020.000000	0.052306	0.055485	2.343704
7030.000000	0.056409	0.057067	0.301884
7040.000000	0.051632	0.048332	1.515900
7050.000000	0.055441	0.051420	3.544202
7060.000000	0.061309	0.062985	0.462563
7070.000000	0.058497	0.055115	3.525888
7080.000000	0.062839	0.059483	1.745456
7090.000000	0.054462	0.053532	1.398768
7100.000000	0.055469	0.049788	1.798770
7110.000000	0.054209	0.053958	1.965705
7120.000000	0.057819	0.060029	2.473279
7130.000000	0.058933	0.058258	0.970023
7140.000000	0.057385	0.058387	1.365622
7150.000000	0.057846	0.059382	2.472063
7160.000000	0.059541	0.051999	1.274143
7170.000000	0.067196	0.067502	3.986898
7180.000000	0.065556	0.065702	1.180580
7190.000000	0.061170	0.060288	2.953089
7200.000000	0.067796	0.065313	1.070623
7210.000000	0.062199	0.064876	0.463723
7220.000000	0.058827	0.059783	0.469444
7230.000000	0.063713	0.064727	1.110972
7240.000000	0.056833	0.056432	1.724825
7250.000000	0.062777	0.068768	1.298090
7260.000000	0.061698	0.058857	0.844951
7270.000000	0.059095	0.065092	0.190944
7280.000000	0.067354	0.074032	0.284227
7290.000000	0.061182	0.063139	0.237675
7300.000000	0.054642	0.057232	0.483182
7310.000000	0.059398	0.058093	0.287335
7320.000000	0.056650	0.060184	0.297002
7330.000000	0.057476	0.056177	0.571755
7340.000000	0.053457	0.049918	0.655543
7350.000000	0.057282	0.059793	1.213523
7360.000000	0.061275	0.062514	0.387659
7370.000000	0.057907	0.061739	0.766904
7380.000000	0.053246	0.056544	1.773885
7390.000000	0.057012	0.061972	0.987392
7400.000000	0.053417	0.049327	0.435253
7410.000000	0.049718	0.049552	1.181162
7420.000000	0.054064	0.055907	0.448382
7430.000000	0.054208	0.051854	0.724325
7440.000000	0.054685	0.056410	1.020053
7450.000000	0.059487	0.069740	0.325560
7460.000000	0.053872	0.051779	0.314064
7470.000000	0.059357	0.055455	0.868347
7480.000000	0.065143	0.062792	0.754924
7490.000000	0.058034	0.058034	1.412946
7500.000000	0.052739	0.053338	0.837147
