

# -100dBm from HP, with preamp
# Scan parameters: power 16.000000 dBm, bandwidth 1.500000 Hz
# Frequency [MHz]	avg noise	std noise	peak value
10000.000000	0.034110	0.047172	1315.207133
9950.000000	0.071374	0.093476	7974.385992
9900.000000	0.053022	0.057842	3863.296751
9850.000000	0.059795	0.081282	1630.820276
9800.000000	0.067378	0.068122	8319.775688
9750.000000	0.071289	0.078780	6446.182578
9700.000000	0.068405	0.065982	5343.000993
9650.000000	0.089538	0.091679	11273.594170
9600.000000	0.067167	0.066049	4942.452623
9550.000000	0.099231	0.105920	11021.406356
9500.000000	0.097514	0.118071	9004.080205
9450.000000	0.082080	0.090259	10022.637795
9400.000000	0.107703	0.102689	10280.129690
9350.000000	0.147311	0.136244	18616.872219
9300.000000	0.111197	0.138887	9675.706174
9250.000000	0.099709	0.113998	10627.725757
9200.000000	0.083397	0.095778	4646.470730
9150.000000	0.135884	0.149757	19052.457522
9100.000000	0.112117	0.113484	13413.485537
9050.000000	0.105339	0.109347	8862.202571
9000.000000	0.091299	0.098573	9437.228624
8950.000000	0.119186	0.124581	13805.629084
8900.000000	0.108725	0.102997	10859.257025
8850.000000	0.106972	0.124180	10431.316483
8800.000000	0.130746	0.125318	20616.018310
8750.000000	0.093358	0.089955	9135.021620
8700.000000	0.124380	0.115434	16764.016665
8650.000000	0.144214	0.137840	13857.724777
8600.000000	0.102022	0.096955	10069.444766
8550.000000	0.201384	0.224265	20846.819573
8500.000000	0.143044	0.136812	20452.035123
8450.000000	0.133214	0.144036	19431.753198
8400.000000	0.151830	0.143105	20552.208324
8350.000000	0.148758	0.145557	14579.044370
8300.000000	0.131964	0.115261	16335.015582
8250.000000	0.131624	0.143236	15676.138910
8200.000000	0.222462	0.217878	19598.501837
8150.000000	0.221990	0.209324	24058.947302
8100.000000	0.255482	0.241831	25301.192226
8050.000000	0.207916	0.211780	20733.321107
8000.000000	0.197032	0.203031	27273.430885
7950.000000	0.196224	0.192136	21170.537034
7900.000000	0.179225	0.170187	24387.923990
7850.000000	0.212244	0.228100	23097.109932
7800.000000	0.159079	0.179540	20066.205448
7750.000000	0.262362	0.248222	28743.248858
7700.000000	0.188021	0.174898	21681.115513
7650.000000	0.220116	0.212165	27016.539724
7600.000000	0.185282	0.171142	27961.717960
7550.000000	0.202860	0.194606	26496.457772
7500.000000	0.197297	0.188980	24511.338958
7450.000000	0.208979	0.241549	23106.285168
7400.000000	0.179951	0.167164	21030.186624
7350.000000	0.202973	0.217977	30258.986379
7300.000000	0.175474	0.175416	19717.257740
7250.000000	0.134591	0.167684	15188.428483
7200.000000	0.195565	0.180003	31687.231235
7150.000000	0.155776	0.165164	21627.738628
7100.000000	0.112259	0.118850	11786.159968
7050.000000	0.117923	0.126233	14816.680724
7000.000000	0.105815	0.135505	11497.886843
6950.000000	0.102703	0.101440	10248.764830
6900.000000	0.114200	0.165588	12250.655304
6850.000000	0.119253	0.135723	16253.481414
6800.000000	0.132169	0.157792	18509.625208
6750.000000	0.112751	0.165142	13989.478864
6700.000000	0.107335	0.127217	11164.387469
6650.000000	0.110862	0.110170	11180.100959
6600.000000	0.106463	0.103506	14535.729994
6550.000000	0.103869	0.120516	7997.207067
6500.000000	0.138742	0.139781	19263.985508
6450.000000	0.111234	0.120245	13997.161601
6400.000000	0.106818	0.150744	9557.538239
6350.000000	0.112079	0.126450	16222.896335
6300.000000	0.124058	0.143011	13312.336886
6250.000000	0.134188	0.150660	16408.481312
6200.000000	0.131328	0.128673	18164.680108
6150.000000	0.119615	0.159206	8530.162005
6100.000000	0.116416	0.154305	8052.539545
6050.000000	0.221960	0.228800	31645.657354
6000.000000	0.148960	0.283388	9557.069121
5950.000000	0.200372	0.194429	32750.716782
5900.000000	0.206790	0.244787	31682.664433
5850.000000	0.131039	0.201242	11338.444904
5800.000000	0.301050	0.341497	62073.662617
5750.000000	0.264452	0.246284	50295.241948
5700.000000	0.177451	0.182005	24832.513923
5650.000000	0.202157	0.238440	31346.280055
5600.000000	0.178150	0.202359	23273.036277
5550.000000	0.127787	0.135133	14162.201304
5500.000000	0.226112	0.279775	41888.622413
5450.000000	0.108758	0.120147	12872.729665
5400.000000	0.333062	0.355058	76312.327053
5350.000000	0.163135	0.168535	26806.040674
5300.000000	0.318181	0.269968	61509.753116
5250.000000	0.206113	0.203764	27957.075794
5200.000000	0.280220	0.319226	54124.959656
5150.000000	0.201413	0.225226	22471.166365
5100.000000	0.547886	0.563171	122314.594679
5050.000000	0.447415	0.458635	102426.398262
5000.000000	0.244695	0.233599	33412.745988
4950.000000	0.186725	0.180264	20158.041164
4900.000000	0.322033	0.293512	65675.303662
4850.000000	0.536872	0.503052	106944.377318
4800.000000	0.274551	0.308628	23528.494884
4750.000000	0.409129	0.399097	75770.379851
4700.000000	0.186112	0.237573	16979.185960
4650.000000	0.118911	0.118694	4701.186980
4600.000000	0.152898	0.182121	13110.000382
4550.000000	0.249169	0.270213	37391.498639
4500.000000	0.404604	0.398617	67134.345492
4450.000000	0.224023	0.292517	22968.957143
4400.000000	0.240182	0.300650	36917.611510
4350.000000	0.215103	0.277717	24688.908857
4300.000000	0.536023	0.485329	111306.952075
4250.000000	0.186851	0.223086	22106.167574
4200.000000	0.258185	0.274761	48615.553807
4150.000000	0.155087	0.157806	15098.352825
4100.000000	0.236658	0.209969	42079.012833
4050.000000	0.235368	0.221069	36575.613879
4000.000000	0.232114	0.264668	27406.715397
3950.000000	0.367515	0.529883	69140.206611
3900.000000	0.131240	0.120907	14997.184930
3850.000000	0.173288	0.166899	19589.092135
3800.000000	0.272582	0.299385	44043.580496
3750.000000	0.223376	0.264109	32292.133958
3700.000000	0.195816	0.209949	31972.211599
3650.000000	0.201876	0.209217	29404.718416
3600.000000	0.234631	0.250506	31772.151240
3550.000000	0.209843	0.202274	32007.112540
3500.000000	0.149283	0.151070	17520.597136
3450.000000	0.167135	0.166326	28036.088444
3400.000000	0.252667	0.277456	41839.064883
3350.000000	0.129439	0.138858	16039.886323
3300.000000	0.124978	0.122340	10669.539913
3250.000000	0.118214	0.112097	17861.269352
3200.000000	0.145195	0.139876	14933.656289
3150.000000	0.162269	0.328341	26038.764898
3100.000000	0.180562	0.224846	32969.682658
3050.000000	0.049280	0.049531	7828.057212
3000.000000	0.141062	0.150640	21900.571614
2950.000000	0.056132	0.052139	7934.345821
2900.000000	0.028227	0.034911	3262.457413
2850.000000	0.018246	0.017246	1444.395932
2800.000000	0.039656	0.041972	5300.350507
2750.000000	0.016257	0.015129	1236.348746
2700.000000	0.004877	0.007081	303.804092
2650.000000	0.016423	0.015358	1216.293122
2600.000000	0.005534	0.007890	383.750056
2550.000000	0.006855	0.009335	332.212772
2500.000000	0.003261	0.005738	138.677405
2450.000000	0.007538	0.009097	411.185859
2400.000000	0.003554	0.005729	41.398606
2350.000000	0.002546	0.005035	34.135107
2300.000000	0.005399	0.006966	145.623643
2250.000000	0.002341	0.004596	33.669662
2200.000000	0.002531	0.004773	17.269575
2150.000000	0.002292	0.004663	8.830205
2100.000000	0.003939	0.004847	87.843860
2050.000000	0.002247	0.005706	1.846897
2000.000000	0.002392	0.005934	3.838976
