

# Hittite generates 10dBm to mixer, HP -60dBm
# Scan parameters: power 16.000000 dBm, bandwidth 1.500000 Hz
# Frequency [MHz]	avg noise	std noise	peak value
10000.000000	0.009601	0.009896	4.304040
9950.000000	0.009413	0.008956	4.510704
9900.000000	0.011036	0.011513	3.974091
9850.000000	0.011208	0.011667	4.408957
9800.000000	0.011184	0.010652	5.153858
9750.000000	0.012754	0.013635	1.987558
9700.000000	0.010943	0.010221	1.616960
9650.000000	0.016482	0.016634	1.464851
9600.000000	0.017799	0.018392	1.373440
9550.000000	0.023217	0.023734	1.416037
9500.000000	0.014887	0.017181	1.286200
9450.000000	0.013210	0.013215	1.308800
9400.000000	0.010609	0.012860	1.456455
9350.000000	0.012913	0.012817	1.695698
9300.000000	0.011937	0.013974	1.691176
9250.000000	0.011693	0.012170	1.827390
9200.000000	0.010515	0.010456	1.438417
9150.000000	0.010619	0.010005	1.436015
9100.000000	0.010877	0.010103	1.607366
9050.000000	0.009609	0.009161	1.801793
9000.000000	0.010012	0.010888	0.978566


# 
# Scan parameters: power 16.000000 dBm, bandwidth 1.500000 Hz
# Frequency [MHz]	avg noise	std noise	peak value
10000.000000	0.001165	0.001091	0.018551
9950.000000	0.001115	0.001208	0.015082
9900.000000	0.001337	0.001239	0.024801
9850.000000	0.001169	0.001311	0.021145
9800.000000	0.001184	0.001267	0.018072
9750.000000	0.001207	0.001317	0.021211
9700.000000	0.001210	0.001178	0.019129
9650.000000	0.001100	0.000989	0.022143
9600.000000	0.001262	0.001247	0.023462
9550.000000	0.001171	0.001088	0.022661
9500.000000	0.001221	0.001252	0.020773
9450.000000	0.001148	0.001099	0.023876
9400.000000	0.001038	0.000953	0.023617
9350.000000	0.001141	0.001075	0.014272
9300.000000	0.001113	0.001148	0.039414
9250.000000	0.001165	0.001110	0.023190


# 
# Scan parameters: power 16.000000 dBm, bandwidth 1.500000 Hz
# Frequency [MHz]	avg noise	std noise	peak value
10000.000000	0.000041	0.000042	0.001361
9950.000000	0.000042	0.000056	0.001029
9900.000000	0.000038	0.000042	0.002238
9850.000000	0.000041	0.000046	0.001572
9800.000000	0.000043	0.000066	0.001212
9750.000000	0.000040	0.000045	0.001363
9700.000000	0.000041	0.000044	0.001760
9650.000000	0.000044	0.000055	0.001387
9600.000000	0.000038	0.000048	0.002310
9550.000000	0.000041	0.000044	0.001714
9500.000000	0.000044	0.000055	0.001640
9450.000000	0.000042	0.000048	0.001278
9400.000000	0.000043	0.000056	0.001476
9350.000000	0.000041	0.000047	0.001172
9300.000000	0.000042	0.000047	0.001346
9250.000000	0.000040	0.000053	0.001590
9200.000000	0.000044	0.000049	0.001260
9150.000000	0.000042	0.000043	0.001313
9100.000000	0.000039	0.000041	0.001416
9050.000000	0.000039	0.000043	0.001911
9000.000000	0.000039	0.000048	0.001949
8950.000000	0.000038	0.000043	0.001328
8900.000000	0.000037	0.000037	0.001375
8850.000000	0.000044	0.000046	0.001279
8800.000000	0.000039	0.000045	0.001434
8750.000000	0.000043	0.000046	0.001423
8700.000000	0.000045	0.000041	0.001904
8650.000000	0.000036	0.000037	0.001246
8600.000000	0.000042	0.000044	0.001347
8550.000000	0.000041	0.000050	0.001511
8500.000000	0.000039	0.000038	0.001359
8450.000000	0.000041	0.000048	0.001390
8400.000000	0.000041	0.000050	0.001270
8350.000000	0.000039	0.000044	0.001602
8300.000000	0.000045	0.000049	0.002411
8250.000000	0.000036	0.000038	0.001047
8200.000000	0.000041	0.000045	0.001737
8150.000000	0.000041	0.000044	0.001817


# 
# Scan parameters: power 16.000000 dBm, bandwidth 1.500000 Hz
# Frequency [MHz]	avg noise	std noise	peak value
10000.000000	0.511034	0.491328	137799.948558
9950.000000	0.567685	0.520918	140532.538951
9900.000000	0.672706	0.610589	177586.511727
9850.000000	0.720323	0.695644	176745.539165
9800.000000	0.793068	0.749610	204167.907857
9750.000000	0.784979	0.767129	202110.023617
9700.000000	0.826402	0.809031	215958.626601
9650.000000	0.821397	0.734938	205756.852168
9600.000000	0.781820	0.731385	206424.218721
9550.000000	0.792872	0.814530	191792.861339
9500.000000	0.740986	0.687525	179187.197389
9450.000000	0.652388	0.619878	170784.281225
9400.000000	0.564758	0.518200	162887.229391
9350.000000	0.688865	0.698882	163154.077395
9300.000000	0.561328	0.496961	139800.188051
9250.000000	0.591540	0.550280	160723.133732
9200.000000	0.555037	0.532407	135145.276087
9150.000000	0.624897	0.629428	157028.026144
9100.000000	0.521725	0.476066	145159.422571
9050.000000	0.549990	0.503127	160349.043015
9000.000000	0.614055	0.613066	153723.125323
8950.000000	0.636980	0.631024	157935.462064
8900.000000	0.720361	0.720164	182130.323827
8850.000000	0.618046	0.551537	173097.983505
8800.000000	0.743826	0.648477	205388.554224
8750.000000	0.681859	0.565134	184694.332684
8700.000000	0.853863	0.763678	223694.371693
8650.000000	0.822125	0.775834	214466.136172
8600.000000	0.889712	0.870484	243370.701965
8550.000000	0.897163	0.853370	244640.693204
8500.000000	1.001271	0.948526	263775.098425
8450.000000	1.019074	1.003555	261103.979838
8400.000000	0.805837	0.895739	263253.536680
8350.000000	1.010177	0.967044	267070.854125
8300.000000	1.031590	0.938335	276442.535291
8250.000000	0.908985	0.837987	267513.237845
8200.000000	1.032011	0.980274	266080.871537
8150.000000	1.014132	0.894702	263116.035389
8100.000000	1.022898	0.927279	273753.390754
8050.000000	0.942587	0.874826	259504.840661
8000.000000	1.039821	0.906688	273089.087545
7950.000000	1.093704	0.988798	273993.562586
7900.000000	1.030570	0.924787	268517.344115
7850.000000	1.059080	1.001461	257989.966245
7800.000000	1.052049	0.955394	266332.197768
7750.000000	0.941264	0.847863	252976.950735
7700.000000	0.924319	0.884413	243030.080364
7650.000000	1.001626	0.945550	241707.237116
7600.000000	0.859841	0.739121	230660.810832
7550.000000	0.689169	0.708488	222838.498764
7500.000000	0.813691	0.720179	205696.790258
7450.000000	0.877561	0.834433	218249.916923
7400.000000	0.764889	0.725441	199278.390564
7350.000000	0.781267	0.869719	189504.080636
7300.000000	0.800611	0.828117	210530.866405
7250.000000	0.665358	0.632249	184992.276600
7200.000000	0.791553	0.674601	211054.714716
7150.000000	0.732062	0.643166	194141.010774
7100.000000	0.901655	0.765369	232277.194891
7050.000000	0.765111	0.690718	203470.263144
7000.000000	0.867061	0.774978	239032.843553
6950.000000	0.874936	0.763731	239041.018299
6900.000000	0.951551	0.809695	264595.478528
6850.000000	0.886253	0.798023	242652.770076
6800.000000	0.914715	0.803250	262461.355038
6750.000000	0.869465	0.757497	244144.818127
6700.000000	1.001116	0.942344	259329.165034
6650.000000	0.806785	0.751505	222553.657045
6600.000000	0.857441	0.788397	218246.596868
6550.000000	0.735020	0.678325	191157.103989
6500.000000	0.792500	0.782481	191927.526769
6450.000000	0.653292	0.679612	172844.826283
6400.000000	0.692701	0.641952	163357.186307
6350.000000	0.703562	0.668578	170648.273630
6300.000000	0.615120	0.528901	161734.537462
6250.000000	0.608952	0.578272	168600.991278
6200.000000	0.656613	0.637632	165746.954381
6150.000000	0.723620	0.637109	181530.127432
6100.000000	0.722589	0.664538	188906.072351
6050.000000	0.737708	0.716811	199436.583288
6000.000000	0.790841	0.690881	214649.202476
5950.000000	0.783113	0.691003	221227.843199
5900.000000	0.855549	0.774212	227058.018903
5850.000000	0.805407	0.779210	214688.541224
5800.000000	0.804489	0.721977	211047.927415
5750.000000	0.676623	0.610665	190500.535398
5700.000000	0.702130	0.643822	196808.741724
5650.000000	0.627091	0.644727	165923.836290
5600.000000	0.643048	0.608855	173681.089228
5550.000000	0.584914	0.534943	154591.562037
5500.000000	0.624043	0.589896	156177.314220
5450.000000	0.400543	0.365370	105072.258890
5400.000000	0.224160	0.204102	61372.735227
5350.000000	0.134966	0.135998	29543.535874
5300.000000	0.072407	0.099098	11110.674452
5250.000000	0.051519	0.122200	5350.404114
5200.000000	0.040984	0.124905	1995.555805
5150.000000	0.038895	0.115121	1167.688177
5100.000000	0.052773	0.185535	443.769357
5050.000000	0.045904	0.143584	228.140475
5000.000000	0.048216	0.142719	56.596367
4950.000000	0.049185	0.171795	22.730087
4900.000000	0.048076	0.138103	21.715455
4850.000000	0.065546	0.136803	94.460554
4800.000000	0.047586	0.129518	202.705839
4750.000000	0.035569	0.123476	152.764201
4700.000000	0.032298	0.098867	308.861428
4650.000000	0.031511	0.116930	149.019536
4600.000000	0.028811	0.095467	161.694300
4550.000000	0.027263	0.082044	331.301365
4500.000000	0.031595	0.090208	292.352373
4450.000000	0.026948	0.109211	404.276812
4400.000000	0.033082	0.065380	287.183495
4350.000000	0.025196	0.064223	437.323751
4300.000000	0.028294	0.045563	612.387883
4250.000000	0.015903	0.032204	215.023625
4200.000000	0.019594	0.039557	367.596714
4150.000000	0.011256	0.030433	288.866499
4100.000000	0.009161	0.020116	433.719561
4050.000000	0.006979	0.019758	355.099686
4000.000000	0.005469	0.010716	426.652713
3950.000000	0.006062	0.009198	343.373260
3900.000000	0.007865	0.018811	373.603950
3850.000000	0.014567	0.031232	332.698117
3800.000000	0.019394	0.070860	242.714892
3750.000000	0.034956	0.075740	192.327824
3700.000000	0.031735	0.113780	93.179517
3650.000000	0.055483	0.162039	103.341750
3600.000000	0.030423	0.142614	57.236203
3550.000000	0.038879	0.114391	26.687787
3500.000000	0.035189	0.134641	8.561270
3450.000000	0.031451	0.108351	8.065882
3400.000000	0.036045	0.077741	6.180682
3350.000000	0.021112	0.080714	6.714335
3300.000000	0.042212	0.052654	3.997453
3250.000000	0.015983	0.044685	3.330215
3200.000000	0.050057	0.064496	7.574472
3150.000000	0.013434	0.053146	4.967229
3100.000000	0.030086	0.053385	5.439621
3050.000000	0.006549	0.014058	1.713126
3000.000000	0.017025	0.029593	6.451729
2950.000000	0.016856	0.018632	7.281397
2900.000000	0.007410	0.010092	3.041450
2850.000000	0.006372	0.008336	1.737995
2800.000000	0.005130	0.006430	7.907754
2750.000000	0.004821	0.005461	5.663795
2700.000000	0.001496	0.002533	2.646447
2650.000000	0.003529	0.004068	12.049507
2600.000000	0.002083	0.003266	17.415063
2550.000000	0.006861	0.006485	13.292802
2500.000000	0.001838	0.002778	0.970757
2450.000000	0.005110	0.005387	2.641544
2400.000000	0.001832	0.002396	0.122258
2350.000000	0.001660	0.002243	0.089636
2300.000000	0.002923	0.003451	0.111227
2250.000000	0.001511	0.001701	0.090576
2200.000000	0.001437	0.001820	0.051274
2150.000000	0.001304	0.001500	0.045560
2100.000000	0.002772	0.003816	0.090364
2050.000000	0.001359	0.001567	0.044735
2000.000000	0.001356	0.001762	0.047900
