

# Same as before, do these peaks exist?
# Scan parameters: power 16.000000 dBm, bandwidth 1.500000 Hz
# Frequency [MHz]	avg noise	std noise	peak value
10000.000000	270.583198	348.699092	146250.190172
9980.000000	274.683031	367.814282	86807.311840
9960.000000	331.232271	399.917837	132193.830132
9940.000000	347.350043	391.064391	177747.666554
9920.000000	406.770452	523.400346	278385.067743
9900.000000	361.172400	439.582439	506996.113928
9880.000000	374.358439	399.881724	801638.229104
9860.000000	390.100541	463.227648	558883.449040
9840.000000	513.648865	514.552226	164796.950794
9820.000000	571.653424	572.226076	92173.544106
9800.000000	438.575647	621.507062	104499.737248
9780.000000	438.330111	423.094182	25645.381140
9760.000000	514.583106	541.384926	12956.473400
9740.000000	565.764712	616.315910	58266.223087
9720.000000	571.802128	587.324325	68067.796261
9700.000000	558.591416	669.133404	168802.821592
9680.000000	509.545260	561.929403	134771.167274
9660.000000	545.923232	566.004102	31896.741899
9640.000000	631.593365	677.341611	21164.154682
9620.000000	622.653196	682.834566	22741.709891
9600.000000	599.423609	644.213201	168518.853123
9580.000000	493.181417	592.659139	107723.724470
9560.000000	557.179871	634.818085	110271.073825
9540.000000	584.808448	642.523802	152294.072871
9520.000000	644.573659	618.064579	253967.133332
9500.000000	650.220586	720.758046	291859.500845
9480.000000	714.139022	742.036556	340896.885080
9460.000000	579.947460	677.518702	56036.147716
9440.000000	615.225837	585.622182	49746.202276
9420.000000	665.906199	897.551674	126707.032418
9400.000000	681.487418	776.638896	347776.372016
9380.000000	630.458462	682.736924	358439.133560
9360.000000	610.688288	683.046520	347760.715228
9340.000000	629.207481	590.005653	216821.334880
9320.000000	721.910867	682.699748	244237.013764
9300.000000	763.394346	845.706301	245858.115583
9280.000000	748.127205	828.104897	121572.619370
9260.000000	572.521012	751.697360	19386.491949
9240.000000	582.418811	564.571301	44607.326436
9220.000000	710.970817	810.017738	107016.489038
9200.000000	632.411658	626.595909	453370.951578
9180.000000	677.077399	729.367586	562951.258639
9160.000000	679.940576	732.821082	271341.269243
9140.000000	661.084515	668.341680	85133.716066
9120.000000	722.020300	660.010638	51145.156434
9100.000000	703.163390	707.000904	298570.502566
9080.000000	700.424218	743.551393	665050.131599
9060.000000	748.569306	891.099766	579386.879202
9040.000000	743.211542	789.445268	230653.567151
9020.000000	662.685399	874.702399	29489.881363
9000.000000	711.128497	783.704941	43982.623942
8980.000000	717.214903	733.915597	162064.061750
8960.000000	803.019464	937.423961	170398.638363
8940.000000	794.531295	867.492233	118858.919365
8920.000000	690.807832	662.207325	170007.970108
8900.000000	761.486616	766.163901	342200.035091
8880.000000	677.342476	760.579773	435041.217129
8860.000000	698.004284	713.400237	193742.759944
8840.000000	695.280561	740.013074	203586.925194
8820.000000	710.024988	841.710852	153802.750559
8800.000000	699.971389	791.216241	259629.691722
8780.000000	588.655956	577.056784	85949.817660
8760.000000	653.363826	766.699520	34079.821285
8740.000000	672.491997	922.032478	133908.123291
8720.000000	640.626421	645.035464	324225.071826
8700.000000	588.414674	622.219254	238684.810556
8680.000000	516.817930	744.593623	188241.344035
8660.000000	604.687553	732.828382	166601.331112
8640.000000	595.014336	680.660046	402447.257585
8620.000000	599.133261	627.499773	296136.489381
8600.000000	607.145174	610.573970	412494.842878
8580.000000	605.555972	635.742941	218708.819649
8560.000000	576.987346	615.932748	32547.095854
8540.000000	584.923985	534.804903	91037.460908
8520.000000	628.816833	641.470110	125511.239924
8500.000000	681.007326	758.263580	325373.405038
8480.000000	592.260096	642.772167	355475.068431
8460.000000	633.474186	693.100682	327338.700059
8440.000000	633.209048	811.031814	238008.338927
8420.000000	619.463123	695.898460	67938.506711
8400.000000	605.749024	567.695348	89220.611425
8380.000000	631.207507	666.865957	369620.134341
8360.000000	699.539199	701.659557	453914.771112
8340.000000	596.711453	574.652681	357604.578965
8320.000000	680.932902	734.991494	68409.360262
8300.000000	732.304152	690.561279	156275.485502
8280.000000	654.257372	658.811468	449469.195101
8260.000000	721.404556	733.807492	585807.059229
8240.000000	660.201747	693.863309	466517.854248
8220.000000	802.443389	831.641991	218564.881145
8200.000000	792.598209	927.551576	74774.094090
8180.000000	716.739653	755.119316	85219.544928
8160.000000	939.679095	959.946318	86002.104681
8140.000000	878.451706	914.025024	64572.529231
8120.000000	846.324661	894.988792	94317.158964
8100.000000	877.889605	838.911667	319596.216631
8080.000000	924.865809	1087.165816	434115.608173
8060.000000	1078.681541	1237.703632	344500.963876
8040.000000	1003.008149	1086.221618	95113.245564
8020.000000	1010.123420	1003.154207	50914.585352
8000.000000	1013.846984	1184.643774	38716.990498
7980.000000	1042.895034	1150.229858	171831.038055
7960.000000	1096.920920	1041.472045	267068.407859
7940.000000	1124.564389	1298.039903	228179.790203
7920.000000	1081.627095	1210.597190	138302.865912
7900.000000	1026.230787	1072.375004	208034.668641
7880.000000	999.358668	1154.533452	232102.231562
7860.000000	1154.204742	1011.067497	138423.664989
7840.000000	1022.085751	1107.640773	91410.715460
7820.000000	1134.743625	1190.076404	78982.207343
7800.000000	1079.851742	1230.750243	251473.038707
7780.000000	1246.291403	1635.109180	207468.734232
7760.000000	1097.175403	1158.543593	82158.352957
7740.000000	996.657171	1093.977673	65987.513069
7720.000000	1118.618814	1487.175598	66793.886485


# 
# Scan parameters: power 16.000000 dBm, bandwidth 1.500000 Hz
# Frequency [MHz]	avg noise	std noise	peak value
7700.000000	1127.053221	1286.988204	384678.360782
7680.000000	920.443319	966.442624	596952.462956
7660.000000	1080.578607	1143.536418	448492.537166
7640.000000	1194.307160	1154.784956	545926.999554
7620.000000	1105.177833	1293.148452	363707.156911
7600.000000	1136.728299	1466.952420	401631.316687
7580.000000	899.088617	860.256661	306422.722375
7560.000000	1037.949979	1066.339447	208876.111439
7540.000000	1119.034479	1110.441677	249379.329054
7520.000000	1053.656340	1140.043883	215776.575870
7500.000000	1071.741647	1152.259799	489638.205879
7480.000000	938.478266	1013.490309	367529.974448
7460.000000	1011.438116	1189.051388	232808.934532
7440.000000	984.470811	1065.734570	151252.438306
7420.000000	862.581366	837.988774	263811.554137
7400.000000	912.274159	1001.451785	585894.891443
7380.000000	906.235750	953.225761	581740.268185
7360.000000	1045.021816	1252.550676	387844.309268
7340.000000	844.803296	814.063006	140031.945236
7320.000000	1010.085548	972.536793	197705.655378
7300.000000	1068.666011	1060.496185	287411.232040
7280.000000	952.828702	929.170863	290264.236900
7260.000000	895.591609	934.621309	234701.645679
7240.000000	822.204996	885.289065	105923.124696
7220.000000	849.571260	918.014464	154543.130720
7200.000000	784.310148	846.274975	160378.455167
7180.000000	840.717804	935.375365	213144.077653
7160.000000	791.131984	793.653656	176526.039303
7140.000000	714.798119	836.997398	192553.844764
7120.000000	921.426268	914.548848	181381.789214
7100.000000	740.514189	878.631663	218265.156815
7080.000000	616.773492	707.345293	208041.071056
7060.000000	643.460200	837.338180	116574.733708
7040.000000	621.135511	800.976277	135793.620139
7020.000000	727.171006	1112.288093	54786.492153
7000.000000	675.318730	1021.160044	71226.899305
6980.000000	708.752657	784.959832	144813.221374
6960.000000	684.168423	948.633819	139573.114285
6940.000000	786.446236	1067.309268	51433.465054
6920.000000	683.967254	885.269505	50125.647931
6900.000000	681.147038	791.471377	129016.085593
6880.000000	843.959857	1330.315947	123093.428769
6860.000000	780.157119	1113.604512	154713.243678
6840.000000	770.513470	967.512108	47840.448333
6820.000000	821.587305	1207.329591	53594.904206
6800.000000	727.501288	1067.088060	126755.363751
6780.000000	647.136932	882.790892	83969.177551
6760.000000	686.581089	903.313885	134292.909003
6740.000000	706.189008	853.757544	60365.360619
6720.000000	637.967776	1026.234689	76277.256167
6700.000000	689.730759	1068.159659	114250.141187
6680.000000	738.863154	1140.737089	225000.355284
6660.000000	657.664157	1011.911407	283038.845838
6640.000000	613.141344	792.474535	252803.645458
6620.000000	498.345603	505.993017	166643.993703
6600.000000	672.879270	782.920780	205198.944775
6580.000000	574.645334	722.758691	85788.496632
6560.000000	508.821612	682.919271	42947.959241
6540.000000	583.339344	706.968066	135568.574966
6520.000000	535.228389	730.306960	106520.641676
6500.000000	490.840412	722.633169	127409.392665
6480.000000	577.552331	612.400757	164022.622307
6460.000000	584.914058	732.799380	137716.390335
6440.000000	630.367923	760.519657	83931.130346
6420.000000	570.350720	719.595765	171026.062455
6400.000000	558.260370	727.722612	198066.377667
6380.000000	588.638177	888.481989	211762.592125
6360.000000	609.934650	793.164209	178113.424947
6340.000000	609.315287	752.767646	30976.240854
6320.000000	588.548795	709.997388	32972.918733
6300.000000	621.809932	905.204804	131774.885477
6280.000000	793.907533	930.461187	212854.325083
6260.000000	620.230042	818.838132	167574.170079
6240.000000	615.839841	739.768897	67636.420604
6220.000000	679.600121	707.465902	38784.494785
6200.000000	777.927745	913.932449	99646.851283
6180.000000	664.885543	684.966461	408001.772106
6160.000000	724.557329	667.662846	125181.810700
6140.000000	665.052386	716.201804	50779.502969
6120.000000	781.622784	826.569931	26963.217792
6100.000000	807.134238	729.310983	544396.632055
6080.000000	809.991863	799.195075	2282417.297749
6060.000000	938.261348	1020.386001	3936270.078427
6040.000000	934.542473	1143.513419	3464935.662711
6020.000000	908.153019	1006.137529	865182.016057
6000.000000	793.648716	867.879890	349807.379075
5980.000000	866.645319	1083.860067	385494.956068
5960.000000	950.712060	1141.368125	688895.703169
5940.000000	875.169169	906.677437	283124.490107
5920.000000	986.780081	1140.010099	111431.006164
5900.000000	898.046964	1033.543020	112424.924639
5880.000000	907.311412	1030.700066	491995.168970
5860.000000	1064.793950	1541.766535	1077957.514880
5840.000000	1101.131043	1332.351561	638887.748205
5820.000000	990.748995	1140.140302	949932.411894
5800.000000	1014.927515	1219.338637	537898.692776
5780.000000	1008.570713	1246.581379	277447.950763
5760.000000	939.441834	1357.024342	238076.726326
5740.000000	985.774091	1235.334111	280044.900461
5720.000000	987.343633	1169.214872	169960.357704
5700.000000	891.409433	1182.216003	349911.387448
5680.000000	955.950113	1088.056139	712339.689887
5660.000000	942.521020	1046.846507	431419.913901
5640.000000	897.739732	1035.261903	170164.251669
5620.000000	749.456817	1073.350461	42520.558708
5600.000000	733.119576	1074.373087	51292.840984
5580.000000	721.161581	959.602403	138899.043253
5560.000000	680.633952	705.710233	344804.512041
5540.000000	624.892012	737.998508	443981.435290
5520.000000	730.132883	1139.476716	774202.928268
5500.000000	864.589664	978.113105	1636117.377612
5480.000000	676.966489	662.013752	2393128.170043
5460.000000	737.148740	796.895817	1264623.427659
5440.000000	743.584178	752.262512	426243.721585
5420.000000	811.037749	752.125358	391317.884707
5400.000000	776.603659	1079.298703	1189116.415544
5380.000000	720.753436	768.041598	2372315.047946
5360.000000	785.983493	875.289099	1328731.160215
5340.000000	712.827579	751.986809	259010.497627
5320.000000	831.346794	1061.388529	37173.759552
5300.000000	624.827221	625.323887	300945.816260
5280.000000	697.957785	732.277466	1227045.474267
5260.000000	889.636201	1019.777587	1666658.659004
5240.000000	778.064393	770.042741	915729.289184
5220.000000	868.301426	957.062831	589088.069212
5200.000000	947.848987	1103.970480	210451.840185
5180.000000	871.026480	1082.681313	31419.457545
5160.000000	840.522518	837.100207	54056.259602
5140.000000	991.179079	1060.492284	95092.397707
5120.000000	1023.204801	1167.288202	267378.342412
5100.000000	1142.541190	1200.878027	872114.020994
5080.000000	1030.720124	1273.810916	2290580.418740
5060.000000	1043.171205	1183.328912	2610355.661711
5040.000000	1081.202042	1219.200177	2226197.059352
5020.000000	1135.120068	1148.070823	987063.339786
5000.000000	1193.435388	1360.694619	1063353.124542
4980.000000	1134.873180	1050.749387	603562.306929
4960.000000	1228.403590	1290.206124	377105.754170
4940.000000	1221.696647	1335.050146	1010196.980048
4920.000000	1251.029198	1549.040117	793028.593129
4900.000000	1096.491936	1117.880711	1344617.626766
4880.000000	1264.121948	1240.955468	3367941.874169
4860.000000	1386.282357	1861.903150	4601520.471051
4840.000000	1159.189442	1400.599019	1943517.446891
4820.000000	1043.900624	1063.604829	514344.189462
4800.000000	1157.956451	1491.276586	73129.160145
4780.000000	1116.792256	1185.888226	115533.376005
4760.000000	1162.016785	1223.514911	350296.935424
4740.000000	1138.217706	1105.084599	340567.885008
4720.000000	1311.981533	1453.355374	182132.676394
4700.000000	1188.628609	1341.768313	459503.920588
4680.000000	989.594846	1260.408742	566018.843405
4660.000000	1169.196761	1369.522859	565541.300302
4640.000000	1098.104628	1140.480695	427699.784292
4620.000000	1041.111915	1034.388937	407224.724443
4600.000000	862.555022	827.836726	1660695.110013
4580.000000	819.268698	831.522705	3248021.019227
4560.000000	1115.623257	1148.915456	5317112.813317
4540.000000	955.664733	1047.735386	3611814.882687
4520.000000	1108.098266	1095.257020	1602356.284695
4500.000000	981.577827	995.369206	1121923.749756
4480.000000	1137.359971	1452.419556	658636.890595
4460.000000	1019.471902	980.224483	928172.059709
4440.000000	1208.484965	1224.850170	1358763.767937
4420.000000	937.180971	892.935256	736378.499605
4400.000000	949.852992	1075.132964	885290.041659
4380.000000	877.306654	819.344051	934462.194629
4360.000000	907.268215	929.407743	1070406.576343
4340.000000	891.127170	838.687333	1643360.439074
4320.000000	1229.006557	1371.311471	1567702.337851
4300.000000	868.110261	888.481696	1785897.995078
4280.000000	1070.709551	1181.617853	885271.356111
4260.000000	935.980261	854.660985	177665.772921
4240.000000	964.300001	878.478233	160955.637986
4220.000000	1042.634013	1027.185642	78687.779862
4200.000000	887.209979	1030.147661	44794.739026
4180.000000	1069.013858	1078.706134	54024.789580
4160.000000	1017.166463	1085.872827	135576.938716
4140.000000	1011.923705	1007.126393	330533.537191
4120.000000	1147.405575	1170.050805	732885.223129
4100.000000	976.441677	933.090704	1231489.214342
4080.000000	1019.970774	1049.419767	1453740.721474
4060.000000	1064.426573	1029.372073	1292915.477875
4040.000000	1071.177333	1073.334502	323466.460948
4020.000000	1106.138775	1129.066272	158341.943640
4000.000000	1061.165332	1042.355363	156360.046326
3980.000000	1056.631342	1087.108403	395207.284936
3960.000000	1248.582824	1498.316165	745500.458969
3940.000000	1099.081212	1187.894909	429310.999820
3920.000000	965.138911	1013.837267	786335.584195
3900.000000	958.699785	971.412558	1018826.787036
3880.000000	1136.047744	1364.570096	1087186.561635
3860.000000	1072.666692	1033.290826	663910.768865
3840.000000	1040.698859	1024.871472	411882.675525
3820.000000	926.786123	950.758801	343680.470651
3800.000000	881.516573	977.077813	177909.177512
3780.000000	1073.788651	1128.794958	121585.463849
3760.000000	1054.541889	1296.224527	127779.318731
3740.000000	987.232199	1194.272199	351378.959309
3720.000000	877.395316	932.234411	307459.619577
3700.000000	841.534825	888.229651	733904.656421
3680.000000	925.020407	1025.797897	805620.479559
3660.000000	910.920831	1003.799171	445368.086364
3640.000000	977.707918	877.044625	118427.268507
3620.000000	859.463115	829.443054	47407.378163
3600.000000	892.719761	965.743095	158488.013632
3580.000000	685.691629	656.154722	466353.801945
3560.000000	841.653549	760.340627	772906.012888
3540.000000	996.923472	1103.705832	543026.826624
3520.000000	965.647387	1067.845261	529685.288586
