

# Fine mazed sweep
# Scan parameters: power 16.000000 dBm, bandwidth 1.500000 Hz
# Frequency [MHz]	avg noise	std noise	peak value
10000.000000	389.432810	554.552138	180832.915969
9999.000000	319.898422	467.443001	218964.865761
9998.000000	381.913793	510.879067	111618.713323
9997.000000	328.280992	393.167825	180438.810437
9996.000000	268.097247	354.450320	223953.081149
9995.000000	271.645348	357.485843	107144.814213
9994.000000	283.117566	395.943245	202885.998172
9993.000000	296.092480	397.806157	162334.847483
9992.000000	277.794297	292.541272	136221.486142
9991.000000	330.694685	427.199690	189971.626398
9990.000000	257.982872	301.089797	79708.672081
9989.000000	289.663893	340.631959	176224.302188
9988.000000	285.293170	413.011089	163482.532629
9987.000000	300.626279	371.007051	83841.577516
9986.000000	311.947071	400.536865	135127.061917
9985.000000	259.573363	343.521860	128098.491254
9984.000000	313.911176	406.252217	55881.816428
9983.000000	327.947493	362.929542	158564.078491
9982.000000	296.417646	414.680228	92134.766740
9981.000000	275.617272	410.900994	73274.445855
9980.000000	269.013684	369.050423	97808.859811
9979.000000	310.980525	426.383392	59992.403788
9978.000000	258.668439	341.595403	52266.966309
9977.000000	272.975335	367.773266	61703.313828
9976.000000	306.138004	337.481426	61567.424779
9975.000000	270.745112	334.045539	51753.344898
9974.000000	298.256014	338.591441	55601.301167
9973.000000	379.527859	698.754112	31720.584789
9972.000000	352.024808	461.938686	62345.945982
9971.000000	355.841912	366.601453	69757.453649
9970.000000	425.363068	555.132889	23660.292866
9969.000000	407.785776	520.705038	63943.564896
9968.000000	409.098147	595.503655	57100.765074
9967.000000	349.959872	476.321967	45395.551708
9966.000000	356.753462	517.481066	88391.424559
9965.000000	396.942231	489.008612	94680.581520
9964.000000	382.932698	606.928199	72357.483318
9963.000000	393.430063	489.015762	127267.756859
9962.000000	396.687455	560.022168	49306.396048
9961.000000	473.738158	589.172744	132997.905004
9960.000000	401.578822	622.768641	121615.742932
9959.000000	400.662195	503.069369	80591.802202
9958.000000	402.342224	499.731205	143347.091414
9957.000000	455.225645	532.682467	134343.465801
9956.000000	399.931571	494.953200	101486.979371
9955.000000	401.730000	488.769448	162879.984581
9954.000000	420.645798	489.969226	107402.947697
9953.000000	367.503822	480.047109	115168.890269
9952.000000	356.335544	508.976872	143402.002574
9951.000000	417.266942	476.604100	90244.577226
9950.000000	383.253295	475.240868	133074.206291
9949.000000	327.889005	382.879683	203956.903893
9948.000000	397.218178	509.318456	106312.561172
9947.000000	367.168619	389.355083	173198.035113
9946.000000	398.277070	484.674274	254366.128122
9945.000000	313.983924	435.838248	84414.843452
9944.000000	379.902427	429.075827	265733.101300
9943.000000	332.488102	489.776171	187057.635091
9942.000000	392.584296	468.980487	194780.624378
9941.000000	368.627321	423.064617	299951.273152
9940.000000	373.562569	444.310611	183694.305770
9939.000000	393.286157	482.593005	274734.302441
9938.000000	356.008677	470.881187	262903.196356
9937.000000	335.758697	337.021392	148127.059524
9936.000000	397.672067	573.422410	326172.279082
9935.000000	398.112571	421.045937	361376.090747
9934.000000	490.539874	596.898327	210038.346825
9933.000000	417.638682	574.541414	358447.865637
9932.000000	391.441675	410.637907	378698.923853
9931.000000	403.033389	431.920165	276413.394515
9930.000000	429.156098	433.395649	451565.380167
9929.000000	490.807566	561.760941	346232.952330
9928.000000	383.062682	362.190067	333028.961793
9927.000000	417.887486	701.089768	520781.603266
9926.000000	442.273699	498.304994	236006.659057
9925.000000	456.204999	500.236487	364696.386410
9924.000000	434.633687	608.061030	522179.108480
9923.000000	501.385284	657.801813	237398.408700
9922.000000	486.773603	498.706500	499791.382994
9921.000000	425.242010	669.811899	457788.798987
9920.000000	490.939360	600.712085	348157.846126
9919.000000	457.076391	626.555521	585102.677939
9918.000000	403.997319	449.891926	369527.358507
9917.000000	467.629537	542.236794	353142.067963
9916.000000	435.555422	600.597947	485183.402038
9915.000000	450.182647	646.091912	344822.213270
9914.000000	419.145709	435.239149	361406.965715
9913.000000	376.372391	354.206467	508375.844474
9912.000000	390.217613	441.445928	203125.799308
9911.000000	400.158527	445.327015	416637.971418
9910.000000	372.258935	495.126933	399634.145381
9909.000000	302.945655	326.102884	209168.488343
9908.000000	315.783939	340.537424	404588.503537
9907.000000	345.077510	426.792732	467252.907709
9906.000000	346.877081	353.014218	322881.287864
9905.000000	362.179251	424.598337	514446.095150
9904.000000	372.808485	447.183760	309093.719258
9903.000000	356.643127	452.143472	419118.697588
9902.000000	356.965826	538.692001	486442.605925
9901.000000	319.761898	392.581397	299625.048962
9900.000000	330.536206	408.400093	545515.864655
9899.000000	329.921959	406.007901	551889.800577
9898.000000	335.362024	435.534243	267905.063143
9897.000000	342.366656	486.789830	621859.476269
9896.000000	356.682054	417.745252	653014.387319
9895.000000	357.849317	389.762469	382312.193000
9894.000000	332.810568	372.150995	612549.310627
9893.000000	365.720064	388.505104	478525.002133
9892.000000	389.275028	412.705144	521476.989872
9891.000000	356.337209	342.207516	724602.641553
9890.000000	441.961295	553.027348	499880.803218
9889.000000	393.101732	419.660105	627452.586806
9888.000000	439.536568	635.267762	873294.800919
9887.000000	404.348882	627.240989	319301.617094
9886.000000	442.014714	578.031599	683859.122536
9885.000000	371.288435	372.453114	689001.780430
9884.000000	419.125460	492.723608	328131.316423
9883.000000	423.133475	526.539245	850198.678129
9882.000000	447.155992	572.928791	532046.585768
9881.000000	485.469845	716.095796	527540.951587
9880.000000	493.255329	970.827812	773297.256047
9879.000000	449.586911	548.097714	536809.199153
9878.000000	526.477257	646.644948	537150.127392
9877.000000	426.386198	559.292356	833012.014428
9876.000000	475.294495	651.399739	332529.573917
9875.000000	472.781189	616.658747	607381.018109
9874.000000	489.002818	545.159057	676334.743923
9873.000000	452.170829	677.582365	358910.536389
9872.000000	380.884172	664.595213	623810.334823
9871.000000	411.569381	495.297361	568262.642823
9870.000000	448.145584	611.588859	294981.473569
9869.000000	414.455019	481.949676	662210.700426
9868.000000	370.662092	390.377908	523532.316308
9867.000000	428.431858	504.963322	533710.525149
9866.000000	377.480126	424.146660	692492.936898
9865.000000	429.977670	484.352647	403002.215539
9864.000000	451.781916	489.198283	458328.053556
9863.000000	458.143730	545.497245	610516.207551
9862.000000	415.610524	544.685287	284138.240616
9861.000000	453.134082	464.642189	609642.903715
9860.000000	420.972968	526.098220	592109.571924
9859.000000	457.211197	455.972267	323724.232241
9858.000000	439.861163	483.067766	620266.341478
9857.000000	475.758545	484.445230	498711.748981
9856.000000	406.231671	445.833833	423546.480748
9855.000000	548.998214	981.319612	568803.843807
9854.000000	488.729183	520.207599	346480.641168
9853.000000	578.048365	606.608135	451417.479517
9852.000000	518.299013	619.776275	585232.140607
9851.000000	564.339750	555.649843	263889.750257
9850.000000	522.324886	563.545952	337187.261614
9849.000000	560.296843	637.971242	421523.018598
9848.000000	535.598881	541.025254	212174.358086
9847.000000	602.855484	603.454754	423062.894094
9846.000000	582.974697	749.163391	321543.934638
9845.000000	505.142450	553.864570	279946.979120
9844.000000	595.416222	647.378312	362549.960138
9843.000000	498.466084	468.608447	279253.289086
9842.000000	613.505582	851.947081	261664.364387
9841.000000	591.217873	677.179646	319626.288873
9840.000000	561.756690	731.335872	236302.271697
9839.000000	582.757799	672.757448	342952.339599
9838.000000	530.339864	530.747232	269620.849730
9837.000000	602.066998	624.790301	144075.501515
9836.000000	614.438573	719.836126	268692.496747
9835.000000	623.664967	616.079142	321489.229003
9834.000000	560.196056	669.035553	146550.604449
9833.000000	628.517345	690.953042	388974.424013
9832.000000	614.519318	657.451698	241734.835856
9831.000000	658.094623	731.442659	158421.303619
9830.000000	536.462719	609.601722	287778.842760
9829.000000	598.187144	781.212153	173949.890283
9828.000000	575.478501	652.270289	224401.198651
9827.000000	506.039946	559.600961	234718.475236
9826.000000	531.747414	574.861931	177671.134136
9825.000000	559.777749	534.361419	176187.186828
9824.000000	533.207894	538.580861	204484.062933
9823.000000	481.851518	629.645248	111785.759587
9822.000000	453.624001	455.200100	173224.861054
9821.000000	495.272821	530.990298	128922.580717
9820.000000	479.617860	506.219275	95802.058652
9819.000000	481.088331	609.035941	160764.733661
9818.000000	535.076782	664.357302	137478.959567
9817.000000	484.018422	494.540277	100489.449009
9816.000000	442.623376	470.864955	192074.732201
9815.000000	461.033357	488.859752	155272.058051
9814.000000	502.007117	532.264315	97159.675830
9813.000000	491.807122	598.090865	204694.563610
9812.000000	493.471837	641.747415	83355.875488
9811.000000	427.105328	517.272114	156615.258458
9810.000000	528.332900	523.837266	123303.670738
9809.000000	523.129978	553.254937	104654.905422
9808.000000	522.147517	587.385145	94674.902204
9807.000000	508.918872	478.386566	133093.787015
9806.000000	584.149195	594.486987	91004.371781
9805.000000	486.273833	640.558954	143677.149877
9804.000000	539.721932	596.346466	84484.808646
9803.000000	540.815167	650.307152	84070.983984
9802.000000	459.560479	509.855027	134769.308881
9801.000000	537.131319	636.112302	105694.203312
9800.000000	491.654608	585.152034	71740.042358
9799.000000	562.118651	725.763203	81230.489583
9798.000000	486.418372	599.190674	42044.956707
9797.000000	527.074788	613.169948	89407.299091
9796.000000	465.331271	682.752257	82504.646612
9795.000000	550.908237	690.626075	84538.146343
9794.000000	497.251312	487.772645	77919.800733
9793.000000	405.665941	467.440221	57948.935202
9792.000000	508.504732	562.789367	63840.071020
9791.000000	505.971821	617.233033	73896.589980
9790.000000	455.919223	513.350951	50091.192927
9789.000000	466.543429	529.486547	47277.679231
9788.000000	424.827120	469.964082	61573.170837
9787.000000	441.632372	512.204102	23032.647970
9786.000000	482.948932	574.548922	34834.798539
9785.000000	430.842503	429.529680	47047.119692
9784.000000	441.989488	598.853918	24257.780027
9783.000000	393.484238	386.877099	19746.006768
9782.000000	503.619302	615.323101	18295.393375
9781.000000	439.343649	562.896536	24670.090904
9780.000000	439.088688	484.469592	22816.209427
9779.000000	439.302062	463.015888	22002.471397
9778.000000	455.231470	488.377900	21481.449884
9777.000000	462.852317	468.564022	20811.677029
9776.000000	401.663024	391.253388	10699.521766
9775.000000	476.208764	503.287954	18597.050123
9774.000000	406.261380	426.671337	16620.535506
9773.000000	493.522532	671.831113	16481.258013
9772.000000	475.345127	585.372139	15160.350432
9771.000000	427.289830	434.483588	21179.817348
9770.000000	499.267123	533.188156	20804.011696
9769.000000	504.264900	493.183922	18799.291757
9768.000000	484.700517	459.039702	17847.213770
9767.000000	528.939459	511.142920	22941.862516
9766.000000	514.350720	564.242539	21073.362389
9765.000000	560.150072	622.117297	15299.059059
9764.000000	525.920875	563.544448	14869.244273
9763.000000	537.518885	642.518056	21992.380201
9762.000000	587.621091	690.646510	17094.642281
9761.000000	576.484896	569.648668	14360.444842
9760.000000	569.073906	575.919017	18071.681207
9759.000000	578.984422	655.469442	15957.222112
9758.000000	656.591914	797.307835	18052.508715
9757.000000	514.675964	538.723581	21424.578453
9756.000000	635.762521	653.207750	20495.979621
9755.000000	485.886520	506.998511	25989.926275
9754.000000	515.852318	582.380663	18385.461415
9753.000000	499.544568	577.273272	21201.493048
9752.000000	624.845657	649.461027	73137.688616
9751.000000	592.435295	764.500333	18328.928054
9750.000000	509.537650	516.871226	47854.971000
9749.000000	547.153206	653.154196	55801.558013
9748.000000	543.343833	589.032270	24394.942091
9747.000000	606.807233	642.984926	38317.620274
9746.000000	530.341162	582.113196	82996.972784
9745.000000	529.532579	588.114786	66018.340217
9744.000000	554.677226	643.563082	74549.684193
9743.000000	666.214887	858.380604	58161.516468
9742.000000	545.149151	568.368661	39437.019794
9741.000000	512.921695	501.436172	79776.367675
9740.000000	613.082484	612.221799	58300.493844
9739.000000	649.808197	716.315765	52899.341606
9738.000000	651.018640	633.218368	81253.600363
9737.000000	592.089771	606.500157	38328.007425
9736.000000	690.269443	683.161359	79948.512566
9735.000000	581.609626	641.907800	60431.058735
9734.000000	604.552809	616.069780	43127.940605
9733.000000	652.283999	647.815302	71912.310756
9732.000000	651.870870	708.241073	112553.275547
9731.000000	637.783435	741.969962	60966.800586
9730.000000	633.719088	710.859890	125266.983810
9729.000000	726.095843	755.837101	75493.988842
9728.000000	637.557477	690.977741	93399.856902
9727.000000	767.945144	745.647772	136644.818871
9726.000000	614.110703	617.133627	81576.192799
9725.000000	594.662070	691.241533	125589.062823
9724.000000	704.322886	897.694498	145678.708247
9723.000000	650.238257	819.544518	64843.314116
9722.000000	774.062436	736.378973	183414.473237
9721.000000	585.059459	709.976941	124668.647500
9720.000000	654.363748	968.984222	57041.288182
9719.000000	656.402946	622.623260	186535.558586
9718.000000	643.246435	666.968336	119504.419565
9717.000000	665.589281	814.102593	121823.397028
9716.000000	706.484082	923.545102	174807.428078
9715.000000	779.756805	807.600087	105900.737437
9714.000000	646.087277	647.069459	89685.288727
9713.000000	647.591141	641.800456	148241.926192
9712.000000	622.032371	636.298427	75472.839640
9711.000000	629.142932	648.985386	171045.815698
9710.000000	587.151311	564.467086	182527.928088
9709.000000	583.238843	542.594005	102177.078949
9708.000000	592.924878	568.844443	156524.778510
9707.000000	536.182649	553.877497	175267.852923
9706.000000	533.458651	553.009353	141582.421844
9705.000000	534.365017	531.002457	226339.297638
9704.000000	609.956993	648.637901	138357.931999
9703.000000	518.023676	640.162851	163902.692769
9702.000000	473.535096	521.643618	237953.848075
9701.000000	537.898446	535.880999	123168.349838
9700.000000	544.835026	549.692325	199924.269278
9699.000000	611.071968	783.004295	205896.592177
9698.000000	506.739386	456.840141	97549.877018
9697.000000	545.918058	619.992667	209040.827999
9696.000000	556.481920	583.997187	151781.489966
9695.000000	511.406185	467.274791	84495.670513
9694.000000	545.651698	608.655519	212027.272880
9693.000000	543.999323	581.783393	152818.302700
9692.000000	544.694126	611.886843	142934.641769
9691.000000	537.138953	593.721417	208459.942467
9690.000000	596.490529	671.147248	102563.913982
9689.000000	572.907303	707.616632	194550.090106
9688.000000	591.895389	636.329242	180435.804346
9687.000000	646.019959	812.838515	84928.063901
9686.000000	536.258742	623.759468	130647.703796
9685.000000	605.901304	731.326515	129393.644571
9684.000000	525.454517	564.668526	69525.961092
9683.000000	491.314508	540.676459	125076.199793
9682.000000	538.062379	598.827153	135085.863557
9681.000000	528.180798	618.108648	77024.906276
9680.000000	540.561205	619.992301	99601.211535
9679.000000	519.031706	796.752535	54656.406318
9678.000000	540.423457	591.420517	99405.312245
9677.000000	478.915654	479.813620	83299.912089
9676.000000	546.781785	618.690101	58660.323337
9675.000000	527.729156	513.829065	79868.526635
9674.000000	590.861784	631.413146	69844.371577
9673.000000	597.091461	605.801142	39338.907857
9672.000000	447.925022	472.099484	93612.591521
9671.000000	482.607104	504.892573	67404.340035
9670.000000	438.660918	468.330311	37324.206940
9669.000000	564.658274	702.951828	63522.264320
9668.000000	449.125723	491.274293	45919.490928
9667.000000	438.751446	478.550508	64122.165763
9666.000000	454.147285	505.426506	43937.545416
9665.000000	561.696478	620.760794	56053.199544
9664.000000	586.619605	654.920600	33024.686417
9663.000000	494.303858	610.142298	52720.113986
9662.000000	503.789817	557.019486	14281.774139
9661.000000	529.918962	635.039611	36161.327157
9660.000000	506.014369	575.154905	19053.967339
9659.000000	492.899541	494.801054	18577.153626
9658.000000	577.365176	568.040119	18754.114912
9657.000000	483.301513	465.826147	28261.255136
9656.000000	475.377123	476.347458	20800.583297
9655.000000	630.103960	721.231491	22986.606759
9654.000000	545.271323	570.412679	17875.013600
9653.000000	609.360704	726.874122	17969.297169
9652.000000	685.552341	726.644966	30161.601660
9651.000000	632.362433	795.795752	15436.738531
9650.000000	590.444194	554.544818	18608.882696
9649.000000	606.831711	615.555817	16625.449581
9648.000000	537.667880	547.389711	15460.281837
9647.000000	675.920716	758.530186	17008.641233
9646.000000	621.838292	738.043986	16766.671387
9645.000000	661.844034	717.503540	11537.676089
9644.000000	622.290372	660.833488	12972.654441
9643.000000	592.322277	589.386029	20474.612949
9642.000000	583.953542	633.131442	14840.300103
9641.000000	640.932678	615.976598	19959.078863
9640.000000	580.321102	600.701272	16718.126725
9639.000000	575.889213	515.709217	18277.353646
9638.000000	582.844150	595.619752	24282.823099
9637.000000	663.571673	726.980598	15956.341969
9636.000000	544.458569	651.091639	27102.335050
9635.000000	537.739340	588.261189	17293.965113
9634.000000	609.618347	874.864043	18491.405489
9633.000000	615.242428	598.512193	21343.125458
9632.000000	620.772238	636.393541	17368.688289
9631.000000	594.698857	618.582657	21300.102378
9630.000000	534.481817	551.416456	27995.560173
9629.000000	613.267707	633.929174	26959.660547
9628.000000	602.685953	561.730230	28509.939543
9627.000000	561.718986	573.147986	63833.744264
9626.000000	575.303980	643.912427	30565.742051
9625.000000	537.679608	569.761728	30525.080658
9624.000000	640.472850	645.832415	51915.523358
9623.000000	613.399945	544.851729	24111.140909
9622.000000	662.831362	660.679691	67315.044434
9621.000000	605.096281	666.299019	37766.790857
9620.000000	685.249134	670.646938	59834.772673
9619.000000	568.909257	550.171205	52687.691542
9618.000000	648.285735	688.826257	54463.022561
9617.000000	647.233819	663.920340	58567.593921
9616.000000	615.677623	850.281364	69969.430779
9615.000000	597.209700	568.327408	68242.592416
9614.000000	661.775801	650.449786	76947.491762
9613.000000	665.255902	719.339140	129174.871753
9612.000000	682.147370	778.029501	46080.157279
9611.000000	703.131138	754.676346	136974.025034
9610.000000	675.065179	706.259208	116839.283817
9609.000000	628.356275	653.627677	59291.856660
9608.000000	696.740414	663.230743	94912.407438
9607.000000	644.255377	795.135411	134095.159526
9606.000000	713.605985	781.608991	94414.762541
9605.000000	621.744520	555.680403	145946.252985
9604.000000	720.056872	890.648518	77534.135689
9603.000000	536.256955	601.823215	103879.402817
9602.000000	601.134849	605.325741	190107.936320
9601.000000	621.986006	625.336352	98948.347391
9600.000000	670.222506	763.251124	124612.485931
9599.000000	617.855731	645.519203	140682.360007
9598.000000	593.287921	637.882530	88803.663424
9597.000000	648.442555	614.484985	178852.504549
9596.000000	628.909312	687.145354	176564.984553
9595.000000	610.838124	616.018035	132715.441990
9594.000000	569.483879	566.196101	218369.038734
9593.000000	523.838823	494.518655	114708.968775
9592.000000	542.201922	544.818978	120440.315129
9591.000000	629.095255	623.620365	204803.329990
9590.000000	597.707424	701.269143	125931.319915
9589.000000	549.296174	553.618245	162868.058207
9588.000000	509.035396	546.351829	151385.464644
9587.000000	529.361644	539.027708	100069.197690
9586.000000	561.486071	581.774563	124433.527521
9585.000000	580.358797	586.467232	132952.728563
9584.000000	631.141511	698.858134	80954.909942
9583.000000	649.614426	651.436948	91756.130487
9582.000000	536.785016	539.657303	156910.185815
9581.000000	595.459253	658.720717	68339.330116
9580.000000	637.411277	709.855064	128092.442699
9579.000000	613.479856	704.633663	70439.322171
9578.000000	582.017569	773.127837	80502.456120
9577.000000	620.060265	663.578513	98212.182702
9576.000000	608.291672	754.620308	64141.809951
9575.000000	629.647749	817.662324	117545.956627
9574.000000	607.882819	700.724697	103947.990247
9573.000000	605.309629	679.275129	52537.257423
9572.000000	618.521704	750.230152	99628.023881
9571.000000	525.803340	609.631392	97586.142929
9570.000000	548.632699	615.875031	73498.557350
9569.000000	564.254185	554.983354	102164.120347
9568.000000	672.230339	755.590866	86046.792235
9567.000000	511.960376	500.169747	92490.649142
9566.000000	591.206864	573.574270	122392.563284
9565.000000	547.952454	591.922092	55298.593532
9564.000000	582.148121	600.298732	52940.571792
9563.000000	525.521193	574.976733	138794.638390
9562.000000	516.187166	576.111876	47235.183957
9561.000000	623.271346	697.988003	92295.961453
9560.000000	528.888754	539.329433	110784.904936
9559.000000	569.644752	630.863826	55113.684218
9558.000000	593.373656	727.525334	129698.667244
9557.000000	576.434107	626.834260	75898.256337
9556.000000	511.650142	562.531096	86185.709829
9555.000000	541.932963	616.755051	134239.207380
9554.000000	666.546906	778.657453	89915.152210
9553.000000	652.963517	594.361551	137676.501976
9552.000000	647.017388	778.941974	208382.113082
9551.000000	673.530014	637.875833	104999.975653
9550.000000	638.591167	865.241308	134971.868474
9549.000000	625.985060	692.831586	152871.080718


# 
# Scan parameters: power 16.000000 dBm, bandwidth 1.500000 Hz
# Frequency [MHz]	avg noise	std noise	peak value
9548.000000	672.810862	675.068845	80309.960440
9547.000000	657.464100	660.884400	150606.126310
9546.000000	638.178189	678.108563	134212.538864
9545.000000	611.485429	578.167772	89870.785421
9544.000000	694.962459	730.230849	164665.167203
9543.000000	581.205421	572.709944	144959.986619
9542.000000	713.919615	669.296618	157692.992713
9541.000000	648.289690	647.052472	219616.717135
9540.000000	648.378318	643.912386	121544.760295
9539.000000	622.273000	679.484171	153866.012855
9538.000000	679.632017	709.540888	239087.609062
9537.000000	665.857216	690.438340	123487.102620
9536.000000	689.028498	808.147343	211994.921005
9535.000000	726.090727	823.385694	262409.786492
9534.000000	607.697157	672.782041	154916.376380
9533.000000	695.521667	710.316258	363398.507433
9532.000000	669.826412	588.922877	302518.890053
9531.000000	681.832296	725.048671	264870.963346
9530.000000	621.993118	665.265962	342887.204176
9529.000000	696.808057	1001.784230	206399.438533
9528.000000	829.449602	915.451402	258508.824276
9527.000000	749.155676	751.102635	326408.365313
9526.000000	696.670263	708.003815	257786.493285
9525.000000	691.089173	717.242053	338730.159631
9524.000000	704.554633	691.764518	341621.934893
9523.000000	688.329350	779.403510	167893.482569
9522.000000	702.756659	745.273167	390080.486672
9521.000000	683.594948	772.978522	399364.261659
9520.000000	704.704999	657.506300	259043.281735
9519.000000	775.358793	853.968079	450477.210057
9518.000000	700.873458	750.825846	270122.037741
9517.000000	743.543040	671.011321	337244.523224
9516.000000	702.914058	693.401405	413115.852102
9515.000000	756.404802	749.636993	296631.210651
9514.000000	767.617728	766.010775	326701.229490
9513.000000	682.155873	943.322155	493070.885293
9512.000000	704.763856	705.802858	176235.932742
9511.000000	731.660213	717.595055	434842.831042
9510.000000	731.443023	874.632483	413704.684536
9509.000000	600.175790	681.801159	210393.165879
9508.000000	708.589455	650.933293	522943.476799
9507.000000	681.185908	647.094079	393156.951800
9506.000000	706.202073	680.361366	331552.538554
9505.000000	719.676103	770.553700	463730.265630
9504.000000	675.796370	807.763827	308844.600545
9503.000000	685.810768	755.493171	419301.028681
9502.000000	598.801610	691.636163	436754.173569
9501.000000	626.257656	587.434336	205785.090365
9500.000000	734.342980	805.475075	334019.384471


# 
# Scan parameters: power 16.000000 dBm, bandwidth 1.500000 Hz
# Frequency [MHz]	avg noise	std noise	peak value
9780.000000	447.933748	464.441268	36086.859217


# 
# Scan parameters: power 16.000000 dBm, bandwidth 1.500000 Hz
# Frequency [MHz]	avg noise	std noise	peak value
9780.000000	497.102715	582.964558	29535.702428
