

# Backwards, large steps
# Scan parameters: power 16.000000 dBm, bandwidth 1.500000 Hz
# Frequency [MHz]	avg noise	std noise	peak value


# 
# Scan parameters: power 16.000000 dBm, bandwidth 1.500000 Hz
# Frequency [MHz]	avg noise	std noise	peak value


# 
# Scan parameters: power 16.000000 dBm, bandwidth 1.500000 Hz
# Frequency [MHz]	avg noise	std noise	peak value


# 
# Scan parameters: power 16.000000 dBm, bandwidth 1.500000 Hz
# Frequency [MHz]	avg noise	std noise	peak value


# 
# Scan parameters: power 16.000000 dBm, bandwidth 1.500000 Hz
# Frequency [MHz]	avg noise	std noise	peak value
10000.000000	0.482489	0.428562	133901.711651
9950.000000	0.431285	0.407576	123617.091625
9900.000000	0.414969	0.370136	115658.921069
9850.000000	0.551831	0.483105	148904.922916
9800.000000	0.477852	0.416428	131660.402026
9750.000000	0.490215	0.439664	139693.882815
9700.000000	0.488817	0.440270	133563.734198
9650.000000	0.482946	0.424970	136426.377988
9600.000000	0.545165	0.497637	147203.570988
9550.000000	0.494971	0.452559	135385.116045
9500.000000	0.458713	0.431469	127291.740665
9450.000000	0.502163	0.452853	143967.391564
9400.000000	0.440984	0.386720	124336.722299
9350.000000	0.544863	0.486429	153412.246392
9300.000000	0.460792	0.407599	132051.787856
9250.000000	0.512745	0.454264	146393.781218
9200.000000	0.500506	0.439791	138917.631126
9150.000000	0.507832	0.455330	141141.351125
9100.000000	0.585177	0.522216	165003.166121
9050.000000	0.499664	0.437622	139863.929355
9000.000000	0.611145	0.535330	168252.094339
8950.000000	0.542483	0.477273	148681.865654
8900.000000	0.653282	0.578443	177773.256652
8850.000000	0.591329	0.525289	164311.116985
8800.000000	0.666604	0.592938	182665.860535
8750.000000	0.686254	0.601128	188993.062446
8700.000000	0.695635	0.610267	185372.667495
8650.000000	0.701640	0.618758	190533.915111
8600.000000	0.644938	0.561413	182435.992475
8550.000000	0.808967	0.710469	221421.147685
8500.000000	0.708269	0.612878	188765.150991
8450.000000	0.792623	0.680407	213480.142920
8400.000000	0.732946	0.651826	200672.539090
8350.000000	0.772409	0.683465	214545.094808
8300.000000	0.803101	0.731754	217584.210116
8250.000000	0.726457	0.635806	201298.878482
8200.000000	0.798544	0.721984	220850.089130
8150.000000	0.791344	0.706221	210010.725493
8100.000000	0.833208	0.733067	231123.763529
8050.000000	0.690461	0.608226	193467.349715
8000.000000	0.759204	0.688589	211941.336737
7950.000000	0.824633	0.720441	216168.881445
7900.000000	0.852538	0.753296	232851.262926
7850.000000	0.675431	0.599052	188448.533374
7800.000000	0.729877	0.638172	208304.127803
7750.000000	0.640222	0.568639	178873.643343
7700.000000	0.710943	0.625143	198466.191448
7650.000000	0.599545	0.547116	171269.259377
7600.000000	0.628684	0.553163	170214.390539
7550.000000	0.611366	0.532581	172747.987931
7500.000000	0.591834	0.519943	160646.248465
7450.000000	0.643317	0.561168	176742.421380
7400.000000	0.543637	0.475122	153948.273123
7350.000000	0.533024	0.469935	146142.873626
7300.000000	0.628760	0.555139	165819.906127
7250.000000	0.497020	0.428456	133106.903150
7200.000000	0.572942	0.510405	161800.665357
7150.000000	0.505093	0.447073	140504.550206
7100.000000	0.514077	0.468076	142211.090562
7050.000000	0.499998	0.452738	134685.580581
7000.000000	0.511823	0.457305	138745.714829
6950.000000	0.564828	0.511069	153999.591478
6900.000000	0.477074	0.416025	126134.636483
6850.000000	0.529410	0.475608	150558.899932
6800.000000	0.463286	0.433543	133154.355178
6750.000000	0.579533	0.502801	155486.610530
6700.000000	0.502604	0.439327	135509.496003
6650.000000	0.553091	0.489869	156226.829991
6600.000000	0.599858	0.542260	161276.255510
6550.000000	0.502424	0.456340	140517.654178
6500.000000	0.616773	0.541913	163829.455608
6450.000000	0.577814	0.505240	153317.568074
6400.000000	0.623339	0.563581	169425.495521
6350.000000	0.543027	0.484331	151070.412804
6300.000000	0.635904	0.544015	175585.929182
6250.000000	0.641477	0.558121	176115.930162
6200.000000	0.633456	0.581594	176304.676178
6150.000000	0.671524	0.577250	181554.782530
6100.000000	0.697633	0.592917	188505.898517
6050.000000	0.683387	0.592725	188776.138392
6000.000000	0.668457	0.606385	189131.493800
5950.000000	0.712415	0.642374	199145.547512
5900.000000	0.760728	0.688209	214763.130424
5850.000000	0.681242	0.581456	183180.784329
5800.000000	0.706399	0.617329	199445.975479
5750.000000	0.633843	0.564254	183084.505428
5700.000000	0.693110	0.619420	193894.430740
5650.000000	0.698603	0.623947	185931.027156
5600.000000	0.659530	0.578106	181742.231548
5550.000000	0.673446	0.601548	187279.270774
5500.000000	0.596782	0.527637	166800.671888
5450.000000	0.709150	0.619912	193581.518268
5400.000000	0.568770	0.513241	156093.598669
5350.000000	0.653119	0.585826	183484.009660
5300.000000	0.583381	0.520269	163409.252491
5250.000000	0.735847	0.636346	201772.663894
5200.000000	0.671197	0.581095	181033.465528
5150.000000	0.696385	0.633323	199963.658033
5100.000000	0.785619	0.686334	212324.660819
5050.000000	0.800635	0.706582	212811.373484
5000.000000	0.784315	0.707143	221485.566353
4950.000000	0.749172	0.654640	212316.814276
4900.000000	0.827607	0.736796	231842.788064
4850.000000	0.772045	0.688044	216409.120548
4800.000000	0.821212	0.719108	228394.055019
4750.000000	0.892890	0.785870	239217.179883
4700.000000	0.892319	0.777687	244832.887367
4650.000000	0.791933	0.708909	223032.703732
4600.000000	0.898906	0.801031	242917.977361
4550.000000	0.893643	0.779514	238955.913251
4500.000000	0.866946	0.766693	242244.233040
4450.000000	0.837577	0.742492	232879.484428
4400.000000	0.791542	0.696034	213789.290021
4350.000000	0.786178	0.672373	211438.153813
4300.000000	0.795045	0.689545	216481.545478
4250.000000	0.682435	0.610091	195136.366523
4200.000000	0.740776	0.643580	203502.984592
4150.000000	0.695557	0.606463	189715.722552
4100.000000	0.792244	0.702149	216923.462264
4050.000000	0.675980	0.594551	191782.388834
4000.000000	0.574365	0.511202	166832.763359
3950.000000	0.486275	0.427969	131957.625207
3900.000000	0.342703	0.302839	94547.173266
3850.000000	0.310899	0.277230	87131.391558
3800.000000	0.129437	0.113426	35237.435595
3750.000000	0.048829	0.045926	13736.196607
3700.000000	0.064882	0.056991	17862.710369
3650.000000	0.033236	0.031057	8552.847867
3600.000000	0.010694	0.009466	2768.880571
3550.000000	0.006075	0.006165	1551.572595
3500.000000	0.004502	0.004003	1000.100078
3450.000000	0.004459	0.004381	951.176563
3400.000000	0.001968	0.001878	254.805729
3350.000000	0.002425	0.002331	278.755669
3300.000000	0.001386	0.001462	92.208901
3250.000000	0.001800	0.001805	188.332639
3200.000000	0.001343	0.001456	67.049638
3150.000000	0.001297	0.001244	41.859552
3100.000000	0.001343	0.001374	64.070625
3050.000000	0.001144	0.001042	31.328850
3000.000000	0.001250	0.001398	23.833725
2950.000000	0.001248	0.001147	21.865003
2900.000000	0.001255	0.001225	10.288887
2850.000000	0.001200	0.001103	11.036153
2800.000000	0.001180	0.001076	10.747027
2750.000000	0.001163	0.001234	5.969643
2700.000000	0.001209	0.001200	5.011279
2650.000000	0.001059	0.001088	5.220882
2600.000000	0.001102	0.001107	3.911220
2550.000000	0.001148	0.001260	2.527483
2500.000000	0.001264	0.001111	1.657557
2450.000000	0.001055	0.001083	2.577686
2400.000000	0.001178	0.001477	2.391951
2350.000000	0.001185	0.001100	0.822981
2300.000000	0.001111	0.001142	1.915223
2250.000000	0.001063	0.001045	0.909182
2200.000000	0.001142	0.001103	0.888342
2150.000000	0.001163	0.001088	0.436679
2100.000000	0.001220	0.001114	0.486039
2050.000000	0.001096	0.000996	0.854480
2000.000000	0.001075	0.001051	0.231085
