

# Increased the power with 10dB
# Scan parameters: power 16.000000 dBm, bandwidth 1.500000 Hz
# Frequency [MHz]	avg noise	std noise	peak value
9900.000000	134.137962	134.576946	248959.844906
9900.100000	144.427037	133.569166	292458.146595
9900.200000	135.598842	135.541715	269432.111824
9900.300000	141.713200	146.419187	239036.879543
9900.400000	133.411561	129.968716	297123.310013
9900.500000	142.114385	118.549638	246815.330479
9900.600000	132.289390	131.284855	278643.449469
9900.700000	131.012540	136.342216	278682.452117
9900.800000	146.776172	140.415494	277820.243203
9900.900000	159.981925	137.427816	278168.359154
9901.000000	151.989682	147.523074	295313.337502
9901.100000	142.533532	125.473018	271652.496351
9901.200000	132.336361	129.617135	251548.634449
9901.300000	144.098406	153.187926	282101.561098
9901.400000	131.676132	130.999210	286951.855392
9901.500000	158.564904	148.839221	304567.873078
9901.600000	145.344740	146.698465	286340.929479
9901.700000	131.991693	133.990670	249449.302233
9901.800000	159.379885	152.992792	244849.636557
9901.900000	130.454114	131.113954	281378.150948
9902.000000	137.630806	122.125970	274746.600704
9902.100000	130.709006	137.245957	286417.543643
9902.200000	136.806931	142.316970	272664.023054
9902.300000	134.854310	127.627769	260175.045737
9902.400000	129.686442	131.500135	258063.678953
9902.500000	149.364170	153.369316	256040.619552
9902.600000	140.211516	140.687591	247367.826799
9902.700000	127.397345	120.355200	265999.347558
9902.800000	146.365852	152.726891	245934.154683
9902.900000	136.911013	134.437990	227428.002667
9903.000000	140.453211	129.649127	233918.430174
9903.100000	128.981795	116.292994	270274.204688
9903.200000	145.534001	146.218227	284507.491152
9903.300000	136.243116	127.053514	233825.365917
9903.400000	126.960420	124.286369	248977.472038
9903.500000	126.543743	142.604730	278595.090573
9903.600000	119.732311	115.956539	241584.902002
9903.700000	146.144587	151.512582	289671.656716
9903.800000	143.572214	140.188184	271243.089864
9903.900000	142.121530	154.429903	242724.866103
9904.000000	131.018199	130.424031	232503.889620
9904.100000	137.467753	156.452131	219580.183332
9904.200000	131.955731	129.845992	238916.296106
9904.300000	129.733841	127.381909	241171.882578
9904.400000	118.191136	109.744520	277300.918742
9904.500000	135.657436	156.159130	229106.889859
9904.600000	147.036804	144.846964	246463.994204
9904.700000	125.636363	125.126391	284416.956774
9904.800000	140.159271	137.190843	244994.286344
9904.900000	134.326126	149.066067	257438.060297
9905.000000	135.934035	130.456122	238489.738274
9905.100000	137.977572	132.714275	286941.023471
9905.200000	135.943390	152.791020	257993.322357
9905.300000	139.347841	136.551546	224182.673326
9905.400000	127.708684	131.436943	280762.791827
9905.500000	153.156707	155.898601	247032.931448
9905.600000	130.375141	140.257314	239302.215639
9905.700000	148.942413	140.813041	243285.951498
9905.800000	135.403826	128.206808	251391.331420
9905.900000	117.028591	107.936282	244534.987836
9906.000000	144.806287	147.030240	219915.512733
9906.100000	128.520119	114.304295	261350.138740
9906.200000	151.149622	144.064581	270251.391740
9906.300000	143.664724	151.143085	245779.174499
9906.400000	151.014736	147.454704	284963.091669
9906.500000	132.120483	121.178980	267451.750198
9906.600000	147.971830	149.435548	215404.756258
9906.700000	122.419360	110.472601	258686.294465
9906.800000	122.033928	136.104448	229306.751912
9906.900000	122.649963	120.233885	238587.563824
9907.000000	127.798329	122.691610	266428.932603
9907.100000	133.685406	131.644423	264340.875546
9907.200000	124.322410	117.227993	204289.424933
9907.300000	131.832157	125.091855	261684.397020
9907.400000	123.902228	110.995825	255852.746653
9907.500000	131.101015	134.898684	219094.266339
9907.600000	129.537073	133.344972	253509.095467
9907.700000	124.422179	126.200281	227998.493484
9907.800000	112.220013	109.964209	252616.719692
9907.900000	135.137408	135.854802	255184.149815
9908.000000	145.144065	130.477578	234132.237278
9908.100000	132.917185	127.660625	215261.298017
9908.200000	120.940095	114.864485	227382.627318
9908.300000	113.468493	109.343919	255212.931301
9908.400000	129.665559	126.394246	257567.070571
9908.500000	128.990045	127.861979	205454.372560
9908.600000	132.392820	136.312541	221178.279272
9908.700000	127.702618	137.930338	240888.684324
9908.800000	134.850848	152.516365	220888.379796
9908.900000	117.435729	110.037662	219514.444585
9909.000000	137.426608	130.443413	214539.735553
9909.100000	134.908286	146.008455	206654.307561
9909.200000	117.282914	119.738444	253687.719661
9909.300000	130.691784	127.797985	238092.112389
9909.400000	112.532948	110.161513	263543.654721
9909.500000	126.492052	125.550773	244933.048666
9909.600000	135.689091	141.251124	230885.827296
9909.700000	133.677982	122.149079	254979.113897
9909.800000	118.133587	116.664095	227762.042035
9909.900000	121.734356	125.042803	253217.249786
9910.000000	119.237628	107.228057	250880.648668
9910.100000	137.021113	137.884829	242457.286462
9910.200000	132.900891	138.144353	193572.921923
9910.300000	141.541257	145.433592	258533.856897
9910.400000	139.088775	144.490455	201895.441593
9910.500000	136.502349	145.114462	248998.402798
9910.600000	114.102777	115.602880	223187.075988
9910.700000	146.068599	146.292178	191072.835395
9910.800000	113.919992	122.607019	203178.066093
9910.900000	126.871309	112.791100	199622.775242
9911.000000	118.137362	134.522827	209369.689801
9911.100000	136.517390	146.043756	204557.182346
9911.200000	125.904716	137.099236	199705.953991
9911.300000	135.180211	137.089433	246946.420335
9911.400000	126.225931	119.047449	216184.828147
9911.500000	133.139326	138.677802	217204.960703
9911.600000	140.822677	143.036510	245335.493962
9911.700000	135.740936	141.922855	234767.201776
9911.800000	123.920417	120.576136	211212.647709
9911.900000	125.419028	136.748147	217342.770500
9912.000000	127.121611	145.202725	224477.158492
9912.100000	120.799342	117.900135	232445.461506
9912.200000	117.939402	110.415334	233000.884160
9912.300000	126.215806	125.828169	241556.822796
9912.400000	132.138683	130.141670	228241.206719
9912.500000	127.854124	123.018432	202565.490360
9912.600000	122.249227	150.748675	204083.801110
9912.700000	127.715588	129.958702	248556.964903
9912.800000	127.938467	112.415264	233765.633051
9912.900000	125.733481	130.691361	204317.835215
9913.000000	109.129991	94.119498	198581.894212
9913.100000	108.188560	108.268082	182089.790786
9913.200000	122.388256	123.342374	262543.041852
9913.300000	128.282313	137.862119	232484.386551
9913.400000	123.755027	121.089075	205795.715543
9913.500000	118.953181	116.385973	218210.642470
9913.600000	120.223865	110.076675	194674.993606
9913.700000	122.875612	118.497646	201024.823401
9913.800000	130.473443	126.366135	205887.634837
9913.900000	114.805016	129.189508	220721.289545
9914.000000	133.865489	123.572568	198091.833378
9914.100000	125.068976	127.827813	207757.619279
9914.200000	121.840670	126.852401	218818.530678
9914.300000	124.190432	146.572735	211059.818791
9914.400000	126.358731	123.063716	233626.387789
9914.500000	124.490040	125.213257	213298.238467
9914.600000	108.096078	109.777814	222241.242992
9914.700000	125.948124	117.862785	205432.310194
9914.800000	134.281618	137.838299	230231.419884
9914.900000	118.301474	128.226101	223913.522280
9915.000000	130.147783	131.423042	198139.685661
9915.100000	126.336239	129.571617	236071.185300
9915.200000	115.700538	116.506752	215390.218054
9915.300000	128.007307	121.533732	231279.183410
9915.400000	134.017414	134.137622	236767.642467
9915.500000	115.096696	107.423194	214011.407444
9915.600000	114.563730	112.319644	194811.807650
9915.700000	120.067088	123.971591	196990.049902
9915.800000	128.202286	134.297772	211593.673799
9915.900000	112.187498	107.892334	214821.828777
9916.000000	118.231137	119.654652	190334.655453
9916.100000	138.366050	136.812192	183544.987013
9916.200000	110.572453	94.287420	187608.909191
9916.300000	111.769153	98.879629	179817.139502
9916.400000	115.042603	122.444022	224943.982526
9916.500000	121.005583	109.741410	191748.258442
9916.600000	118.600502	121.105783	236558.843351
9916.700000	124.946637	133.098962	194013.654629
9916.800000	126.203191	120.645020	234595.665890
9916.900000	113.110394	117.053004	231461.328285
9917.000000	135.732438	137.365919	229701.284952
9917.100000	109.741796	112.192673	181125.495288
9917.200000	116.891537	109.958949	229950.889292
9917.300000	126.968943	127.477463	226644.303161
9917.400000	116.689868	126.461796	230367.552287
9917.500000	128.070592	129.195110	239472.381140
9917.600000	116.683679	110.487751	245640.262847
9917.700000	130.870771	122.911111	206230.958033
9917.800000	120.772198	122.845384	229822.420540
9917.900000	119.234102	122.592130	183421.981678
9918.000000	116.825748	109.525834	205259.818875
9918.100000	137.501795	127.432161	214052.978988
9918.200000	125.468530	120.188577	187457.925953
9918.300000	116.747356	139.798498	185266.089206
9918.400000	128.031151	133.430976	215798.500834
9918.500000	112.580904	106.435507	213924.093010
9918.600000	117.493195	120.651424	184223.287124
9918.700000	112.727666	119.649289	192017.908509
9918.800000	108.729755	100.059696	210115.065777
9918.900000	115.824679	121.672098	185888.016335
9919.000000	134.783706	134.275436	215056.702289
9919.100000	125.040783	123.082978	199282.727100
9919.200000	115.700899	112.968273	217648.347029
9919.300000	122.845037	124.114881	179898.079490
9919.400000	123.099915	119.038141	213027.174582
9919.500000	126.740477	120.656345	215023.132048
9919.600000	120.875064	115.254854	208510.683351
9919.700000	115.121230	107.917874	213083.132743
9919.800000	125.482645	139.458002	210356.396985
9919.900000	120.701311	129.602448	176446.179015
9920.000000	135.525968	132.249850	206377.926726
9920.100000	109.102615	108.411150	184009.839722
9920.200000	130.627272	131.609556	196477.079539
9920.300000	124.494190	112.698507	212801.148017
9920.400000	111.210973	99.413744	226814.781461
9920.500000	119.844615	112.322025	214296.834849
9920.600000	123.779266	123.915749	186938.277606
9920.700000	123.421158	114.990597	209880.403088
9920.800000	131.403515	136.477288	175406.412854
9920.900000	113.738263	110.828047	216532.014189
9921.000000	118.990486	103.295239	196192.466008
9921.100000	106.899645	105.122619	224546.036509
9921.200000	116.138812	99.923969	226321.974905
9921.300000	108.186547	111.155052	189126.186219
9921.400000	120.722699	119.548916	220171.150040
9921.500000	109.093828	100.668596	214789.626621
9921.600000	136.080630	128.918949	176375.775598
9921.700000	118.004381	116.887709	216986.772768
9921.800000	107.295159	117.518850	220643.267364
9921.900000	129.396045	111.022576	215923.791865
9922.000000	122.142620	122.275835	163149.219266
9922.100000	121.852952	122.588170	175770.322403
9922.200000	119.834845	113.767454	189891.345774
9922.300000	121.330376	111.084450	175154.528315
9922.400000	132.528648	136.894116	224184.851754
9922.500000	119.048387	128.931623	179848.336626
9922.600000	123.423259	125.816288	215075.615215
9922.700000	128.555479	126.895854	180523.817627
9922.800000	138.763960	148.379581	199755.202920
9922.900000	125.202574	120.867962	196598.634866
9923.000000	107.755726	110.763335	179922.714459
9923.100000	125.851674	129.136354	185350.248008
9923.200000	121.101966	125.813084	185599.934605
9923.300000	123.113235	127.069288	190826.974528
9923.400000	104.603890	104.068026	195635.397938
9923.500000	111.456252	109.575630	189429.666331
9923.600000	113.372673	106.742252	172806.707386
9923.700000	120.099821	110.415838	206194.124869
9923.800000	113.432186	123.458950	211592.083807
9923.900000	120.787672	121.698794	200898.813412
9924.000000	110.632301	115.530433	206268.544428
9924.100000	119.984642	121.238885	220092.908422
9924.200000	125.978643	119.738343	172948.001655
9924.300000	118.576174	115.927558	180602.987342
9924.400000	119.592087	120.608062	181938.085360
9924.500000	121.476420	121.459015	165772.695499
9924.600000	115.265636	116.539147	235387.450653
9924.700000	122.980982	119.382467	205870.523594
9924.800000	135.997455	149.349679	180342.849655
9924.900000	112.911452	123.105944	206519.676530
9925.000000	138.268601	135.151934	188391.137753
