

# 
# Scan parameters: power 16.000000 dBm, bandwidth 1.500000 Hz
# Frequency [MHz]	avg noise	std noise	peak value
9500.000000	479.989859	485.179723	1658262.684201
9502.000000	441.355723	459.880898	1680713.569430
9504.000000	456.664220	435.554941	1569936.342211
9506.000000	472.638412	462.495972	1608039.693496
9508.000000	511.509359	495.796596	1626928.444559
9510.000000	483.097374	462.736963	1731015.600316
9512.000000	449.185378	439.767139	1689393.022234
9514.000000	456.569074	548.888671	1498459.144889
9516.000000	508.475718	458.481444	1594950.814378
9518.000000	491.200877	459.553462	1628087.441190
9520.000000	449.902371	454.889597	1528378.813922
9522.000000	524.710205	457.947820	1603923.431091
9524.000000	397.863282	424.448736	1511709.181540
9526.000000	481.871192	518.799230	1413356.791507
9528.000000	459.823424	414.391412	1360205.002874
9530.000000	440.814643	450.049207	1320755.405077
9532.000000	439.280365	448.182220	1390744.016398
9534.000000	415.371878	461.376836	1247339.167358
9536.000000	492.842186	484.439525	1120590.037857
9538.000000	403.614274	391.706930	1213433.608373
9540.000000	457.827627	443.111767	999500.206181
9542.000000	532.804617	503.242754	1057447.333754
9544.000000	401.107340	381.573578	1074993.332037
9546.000000	388.719181	342.440880	956015.529233
9548.000000	388.113827	366.948999	828584.001602
9550.000000	444.533983	491.228540	803752.098855
9552.000000	418.853506	420.961866	861874.325617
9554.000000	475.526710	480.249772	799418.497278
9556.000000	386.717033	398.363413	724251.321240
9558.000000	400.366970	414.356868	736271.986232
9560.000000	471.207146	505.812457	778467.662518
9562.000000	452.280953	444.599333	792156.411998
9564.000000	444.220840	465.039130	703366.957707
9566.000000	404.960911	362.032257	747067.821895
9568.000000	403.258464	388.299445	769607.644002
9570.000000	404.875268	396.278863	789104.330155
9572.000000	433.261918	412.018489	683618.017431
9574.000000	447.491087	424.826998	676301.476760
9576.000000	469.491183	469.568992	762097.545388
9578.000000	427.910077	383.350081	799906.717130
9580.000000	426.802336	398.653848	790996.092834
9582.000000	382.691613	380.009530	796592.664082
9584.000000	396.806920	458.104009	701491.169760
9586.000000	381.618776	385.697541	659127.973946
9588.000000	362.179333	359.875278	781190.947523
9590.000000	385.785358	392.009402	836605.230049
9592.000000	382.826372	396.561481	826988.852168
9594.000000	409.982661	374.560303	778686.758002
9596.000000	448.787880	479.878975	877081.740514
9598.000000	381.862215	362.579249	953771.337390
9600.000000	397.514299	390.873267	904011.340193
9602.000000	370.854471	368.611948	965849.431737
9604.000000	395.591025	357.677572	951703.683892
9606.000000	365.315808	370.008617	914608.804507
9608.000000	363.102253	377.324211	1065325.155569
9610.000000	371.550480	337.503157	1064192.978082
9612.000000	380.441795	326.963961	988459.516670
9614.000000	373.789407	418.161695	965095.923418
9616.000000	378.831960	400.745391	1031411.257511
9618.000000	337.020423	301.722385	1076560.586580
9620.000000	378.863537	322.047901	1106503.690176
9622.000000	336.691968	316.014596	1080717.601696
9624.000000	338.155524	299.030520	1003729.156657
9626.000000	320.797536	333.133178	1088815.665768
9628.000000	411.007384	357.077027	1169918.436683
9630.000000	331.051977	392.009494	1187787.627202
9632.000000	366.602358	385.273582	1053002.981542
9634.000000	350.197577	367.975777	1068293.821650
9636.000000	359.583419	377.523167	1084395.168111
9638.000000	352.453778	357.968326	1055982.445505
9640.000000	342.002391	314.169451	969495.335836
9642.000000	358.710229	321.865600	874432.337390
9644.000000	316.369857	289.908876	852644.200085
9646.000000	355.568752	328.471278	872397.285213
9648.000000	388.766836	388.951272	851283.581488
9650.000000	370.723086	382.479078	755987.700595
9652.000000	302.212491	301.810194	740875.967483
9654.000000	379.794815	349.267400	825485.227713
9656.000000	318.549423	292.691068	748271.050214
9658.000000	332.814317	316.841450	745350.386738
9660.000000	283.237700	286.067844	762196.273438
9662.000000	307.774908	304.767945	812721.853358
9664.000000	327.031173	349.984137	759078.021367
9666.000000	324.668735	319.391246	629094.527658
9668.000000	306.123769	280.425079	620581.134254
9670.000000	343.648752	370.590911	725564.314935
9672.000000	320.925474	338.798547	704683.384192
9674.000000	347.715752	337.543683	643844.726800
9676.000000	294.810530	311.149958	575463.164702
9678.000000	316.352926	310.097830	672713.595418
9680.000000	297.931616	271.430988	667635.290469
9682.000000	346.650905	327.053204	617350.782125
9684.000000	328.449806	342.892458	565400.674572
9686.000000	313.791534	310.737472	588396.893603
9688.000000	309.447487	295.498959	657989.987463
9690.000000	310.011493	322.866351	616942.205256
9692.000000	286.458924	296.720086	579878.026300
9694.000000	334.477507	322.787019	548861.880643
9696.000000	286.613089	272.144435	584565.951509
9698.000000	299.907718	283.138562	587714.829234
9700.000000	313.166192	283.651615	474078.625256
9702.000000	355.142209	373.619187	564623.253991
9704.000000	325.505202	301.300497	623245.530249
9706.000000	346.395259	368.108320	628528.101519
9708.000000	301.817312	342.342879	547870.044499
9710.000000	308.181845	269.609721	528451.381694
9712.000000	293.080224	287.879845	609106.175182
9714.000000	301.259283	336.657393	558520.760159
9716.000000	308.722883	335.413975	535800.740716
9718.000000	306.791196	318.386039	570647.400100
9720.000000	296.114459	315.309075	542766.180068
9722.000000	334.811942	352.705984	598178.346272
9724.000000	282.012992	265.151784	605630.068505
9726.000000	258.597350	246.754361	584654.524325
9728.000000	226.944840	235.628268	545666.430082
9730.000000	276.848052	277.425153	657481.289076
9732.000000	289.925167	278.334345	668230.379718
9734.000000	309.524624	285.803953	585294.872312
9736.000000	296.394228	297.346363	571321.064756
9738.000000	275.740166	269.896642	632703.708198
9740.000000	329.428749	310.666496	649055.487992
9742.000000	255.390708	251.984705	639261.476067
9744.000000	302.679007	313.635614	684760.231561
9746.000000	274.953631	236.913399	678584.353969
9748.000000	249.114077	271.203388	649731.915299
9750.000000	252.204890	262.277716	594034.558061
9752.000000	268.891061	262.618491	617980.535472
9754.000000	287.136356	305.545261	739874.821422
9756.000000	281.743881	276.265034	684671.595091
9758.000000	259.690793	261.654597	623928.267928
9760.000000	281.552520	306.984008	717244.859935
9762.000000	279.726437	266.739137	728021.718255
9764.000000	267.966593	272.525328	567812.025867
9766.000000	231.382850	260.922240	602978.210441
9768.000000	244.800665	229.085770	641571.080234
9770.000000	267.920113	267.874373	623066.154566
9772.000000	227.219460	221.500808	552545.741619
9774.000000	279.498678	274.219637	519612.279594
9776.000000	249.116191	247.403645	577328.053449
9778.000000	252.456968	227.125729	628266.121796
9780.000000	270.857831	253.867130	602188.014222
9782.000000	236.063475	250.122038	551200.386060
9784.000000	244.973739	237.172305	534928.858078
9786.000000	233.608560	257.971923	552431.431423
9788.000000	224.202029	213.697457	560164.371945
9790.000000	251.632745	238.991386	525686.697387
9792.000000	215.935615	201.309912	462285.639639
9794.000000	214.629415	238.700481	453933.131976
9796.000000	252.825270	246.226348	498479.142624
9798.000000	259.458892	254.732584	481196.164752
9800.000000	245.007930	266.733615	424678.332671
9802.000000	252.770037	253.032807	476478.921769
9804.000000	249.205406	235.386283	473665.541144
9806.000000	221.854502	210.172634	416774.856193
9808.000000	239.817422	221.804630	374786.516647
9810.000000	216.158837	215.275024	395262.952641
9812.000000	220.841773	230.420821	407831.636049
9814.000000	219.607665	208.033126	390283.020595
9816.000000	223.952176	205.783250	322485.228581
9818.000000	203.659113	194.957431	376412.264731
9820.000000	253.092889	249.485864	390663.647421
9822.000000	229.062636	226.893258	369316.526003
9824.000000	225.193180	201.192696	333182.424456
9826.000000	226.404688	224.164312	305329.787966
9828.000000	227.962180	252.598108	318823.142719
9830.000000	227.321376	217.140674	345469.296865
9832.000000	223.135027	211.923285	291487.381356
9834.000000	222.737218	203.742766	272656.061259
9836.000000	230.281657	242.035667	307013.162586
9838.000000	223.116931	212.926908	318601.908365
9840.000000	214.817807	200.170910	322809.055118
9842.000000	192.604783	203.063022	260505.703482
9844.000000	220.400874	200.418549	259293.865699
9846.000000	218.988614	225.069178	303136.838484
9848.000000	219.370601	213.134517	272216.931071
9850.000000	221.233333	200.768985	230539.093224
9852.000000	225.148464	212.507687	237317.673302
9854.000000	234.746789	237.896475	290580.965864
9856.000000	207.763242	202.575143	292586.506597
9858.000000	203.085290	220.339070	270797.261635
9860.000000	197.117468	211.372517	253629.152826
9862.000000	247.099106	258.861059	278054.746170
9864.000000	200.012922	221.928016	352632.271274
9866.000000	223.856135	231.463730	338175.555767
9868.000000	219.110704	212.969796	290490.389681
9870.000000	206.801829	218.735800	348276.119157
9872.000000	203.866025	198.949570	391791.082254
9874.000000	188.170096	190.833732	384798.385766
9876.000000	213.534343	230.581651	356858.028707
9878.000000	182.603305	197.109201	402905.454228
9880.000000	206.616067	216.820231	419635.058320
9882.000000	235.517317	228.288066	443309.030591
9884.000000	217.096060	211.242806	391017.996616
9886.000000	209.453979	227.075906	369354.882432
9888.000000	202.178390	213.135168	410635.235542
9890.000000	223.111997	218.167483	430745.625095
9892.000000	185.960266	180.933020	356494.779480
9894.000000	217.128095	210.666255	364343.190939
9896.000000	212.709512	205.931942	419877.493494
9898.000000	184.119853	173.733647	416835.241474
9900.000000	196.366772	173.670477	360953.283360
9902.000000	201.407494	219.676390	347246.358525
9904.000000	200.449737	191.098377	386683.157885
9906.000000	232.610085	233.246908	421920.000686
9908.000000	185.192505	178.500295	371532.970177
9910.000000	216.828820	216.330630	324622.222127
9912.000000	198.615561	188.960074	339513.436053
9914.000000	196.676125	199.312135	396491.980131
9916.000000	194.929240	190.314111	385299.464263
9918.000000	206.491723	205.332741	312199.084464
9920.000000	228.163645	228.867779	332088.423800
9922.000000	192.893771	190.470549	336046.897141
9924.000000	212.764773	205.301649	389719.840106
9926.000000	207.280228	209.605405	292756.656526
9928.000000	169.823291	169.886092	290051.062531
9930.000000	197.989532	204.532035	327957.169915
9932.000000	218.861327	222.022433	351643.463693
9934.000000	217.947631	210.748442	306120.434121
9936.000000	187.957899	172.611247	298969.952482
9938.000000	190.963937	186.502612	335372.112719
9940.000000	174.750304	165.685828	348649.996973
9942.000000	205.290230	227.256294	289323.941129
9944.000000	200.929951	184.577755	289931.820408
9946.000000	183.947611	173.198733	319755.165801
9948.000000	183.129951	166.476337	362087.147529
9950.000000	181.190734	169.198916	322472.200659
9952.000000	177.936020	167.539843	298167.435977
9954.000000	167.074975	164.732614	336483.581908
9956.000000	179.624190	175.840372	396598.792973
9958.000000	201.887052	183.603504	347537.337755
9960.000000	190.993404	198.833003	324020.575428
9962.000000	180.004343	185.408192	340243.620999
9964.000000	169.164226	160.373687	393762.737100
9966.000000	190.223476	199.988003	404358.158390
9968.000000	187.893671	180.154520	335315.981173
9970.000000	174.242858	184.981129	310855.846483
9972.000000	161.823432	161.594659	398712.108997
9974.000000	203.209871	235.129170	396026.663103
9976.000000	169.105406	178.678930	345406.787652
9978.000000	191.636367	189.957088	333023.740499
9980.000000	185.367855	173.534536	380174.068537
9982.000000	173.125295	157.849684	423676.136852
9984.000000	202.922891	189.190071	381641.425090
9986.000000	174.643890	162.596298	356852.040287
9988.000000	188.541558	225.017210	393043.764163
9990.000000	175.812255	171.994526	430858.295759
9992.000000	187.810737	167.168641	397961.226814
9994.000000	162.499179	146.187665	360436.065976
9996.000000	160.827225	159.107823	383942.616976
9998.000000	168.625346	161.286612	445931.236577
10000.000000	176.469104	175.763524	365176.743717
