

# +7dBm on sample, all other normal
# Scan parameters: power 16.000000 dBm, bandwidth 1.500000 Hz
# Frequency [MHz]	avg noise	std noise	peak value
8000.000000	753.311127	781.908130	50518339.788307
7990.000000	736.113521	694.653398	60663853.364394
7980.000000	737.834414	722.940278	57740406.426784
7970.000000	704.186532	670.836479	47107072.782082
7960.000000	671.320867	637.697025	25668869.308568
7950.000000	783.021059	743.718018	7874748.424919
7940.000000	781.385298	820.917862	24610213.914474
7930.000000	870.128805	901.374585	66382320.901405
7920.000000	758.262658	815.336583	84609641.446646
7910.000000	760.122452	818.087485	81803101.964473
7900.000000	821.902217	856.575591	115269374.532671
7890.000000	822.409746	729.498533	126570679.109193
7880.000000	762.162021	820.382866	110380381.129028
7870.000000	708.485446	729.160844	75467134.277136
7860.000000	704.744308	679.993298	35438587.710831
7850.000000	753.997517	756.434762	10850364.036904
7840.000000	682.455216	677.237197	16660273.841404
7830.000000	715.437015	707.363523	42150693.505801
7820.000000	877.152399	796.233127	87801454.680831
7810.000000	843.211949	865.579578	110988013.984097
7800.000000	807.177784	819.220911	103403083.302614
7790.000000	795.618279	785.956206	120502259.679099
7780.000000	804.347031	808.787754	122125877.187401
7770.000000	735.465482	826.189015	81215122.989302
7760.000000	763.119605	759.094237	109568078.978932
7750.000000	722.286665	731.686337	215554597.305587
7740.000000	691.064808	716.463249	262239069.227134
7730.000000	708.403360	727.222892	256319283.981425
7720.000000	697.009753	669.442961	226962177.259667
7710.000000	743.910625	727.658343	118964710.817016
7700.000000	728.840944	775.082606	86743231.349722
7690.000000	719.063898	692.997594	101835947.120426
7680.000000	712.374878	780.247859	151352747.049213
7670.000000	758.658705	791.542596	123433557.984324
7660.000000	707.324719	711.009879	129358081.193453
7650.000000	760.281015	797.959765	165989780.114775
7640.000000	690.108190	773.648213	136185105.274726
7630.000000	730.997932	742.289491	74578393.022520
7620.000000	757.748696	685.259878	127613591.543761
7610.000000	735.112355	791.949575	165427190.886690
7600.000000	790.565558	765.722029	158161391.569150
7590.000000	829.966852	837.611109	152959088.982979
7580.000000	807.145409	800.945111	138458964.884950
7570.000000	752.819436	727.291199	95108658.892020
7560.000000	673.632366	645.708645	69850527.421798
7550.000000	696.155824	648.717099	110361215.150585
7540.000000	761.652709	819.952045	132259349.542783
7530.000000	852.373940	823.052096	152812535.843377
7520.000000	859.430169	854.228327	143238276.741785
7510.000000	769.972484	792.160685	110656202.112939
7500.000000	786.151579	827.786822	60634213.194439
7490.000000	840.144751	871.035051	12386509.763869
7480.000000	693.592063	671.057809	2705627.879253
7470.000000	829.311432	860.396845	13006876.318226
7460.000000	773.104140	780.484797	23505522.339666
7450.000000	889.377295	881.629157	71058004.920274
7440.000000	812.323086	785.739536	56562247.951726
7430.000000	803.366178	815.765310	35054170.643465
7420.000000	782.193530	753.674432	47638236.546407
7410.000000	838.338707	829.471921	71261570.989018
7400.000000	873.912774	872.169928	93732165.869045
7390.000000	959.769220	939.746540	126318928.245360
7380.000000	871.214649	897.870521	145306456.696886
7370.000000	973.076690	883.374395	186579367.093848
7360.000000	854.412346	880.572637	160419054.710839
7350.000000	959.400021	924.192739	120701072.286255
7340.000000	817.178475	824.014695	117049829.482849
7330.000000	819.270877	817.628132	119982154.372603
7320.000000	850.577103	778.447533	181425869.390497
7310.000000	958.503290	944.827791	190536384.969837
7300.000000	819.521820	817.496352	195806469.783365
7290.000000	958.464337	880.340717	170046688.846258
7280.000000	965.006567	952.266188	148595819.353529
7270.000000	1088.509611	1073.009571	87606400.812881
7260.000000	762.908582	778.362607	43892922.785012
7250.000000	741.745653	723.641567	15013873.846675
7240.000000	762.806185	759.270265	5724924.674995
7230.000000	766.106071	734.944356	26736816.087028
7220.000000	787.539913	766.669676	78413009.269951
7210.000000	908.277998	1081.759202	192343828.209280
7200.000000	1008.925269	1129.724061	238173514.197126
7190.000000	926.777064	1141.567224	230187929.464999
7180.000000	920.172450	1085.306764	152453497.935879
7170.000000	927.987656	945.764910	113923618.051530
7160.000000	900.972357	975.387709	89160366.205240
7150.000000	921.009398	1035.980871	160130565.809441
7140.000000	818.973837	932.188033	219922691.982950
7130.000000	787.939221	908.908802	218948097.760406
7120.000000	852.147617	859.912237	204004446.981533
7110.000000	775.929524	686.353285	202489723.420509
7100.000000	755.821953	804.725503	212238577.936325
7090.000000	699.375762	701.542990	245835091.632784
7080.000000	697.284761	692.173288	280720285.210279
7070.000000	710.619009	751.655322	316804867.242668
7060.000000	662.434602	720.160931	340117275.492881
7050.000000	619.721020	672.855479	353409098.528502
7040.000000	603.844508	770.239747	360724434.458581
7030.000000	607.403273	710.190879	360865589.988926
7020.000000	685.260390	879.876233	350198253.645111
7010.000000	644.011891	788.299162	333512219.223242
7000.000000	608.029825	711.812430	321145367.738266
6990.000000	593.658303	685.851140	336364877.982038
6980.000000	664.815198	707.036488	348659836.424362
6970.000000	615.066782	754.902323	357089213.998097
6960.000000	648.989701	783.793752	354790198.773098
6950.000000	614.023547	688.728595	327531784.382672
6940.000000	605.873068	615.250295	297996897.083041
6930.000000	677.871910	728.692758	285559121.464473
6920.000000	692.715423	810.038373	313897139.217138
6910.000000	683.571732	869.786698	336679833.494449
6900.000000	597.404075	729.429455	350914318.647062
6890.000000	616.642297	654.335799	351179574.558211
6880.000000	605.657260	735.029210	351361531.167187
6870.000000	590.430794	717.393930	336226066.888772
6860.000000	519.066661	589.499253	327758939.948446
6850.000000	585.008889	687.344499	333286299.314023
6840.000000	604.198666	673.208097	360132351.956262
6830.000000	498.535354	547.484294	376201431.029667
6820.000000	522.162265	613.231599	383015740.117808
6810.000000	534.824963	576.943257	379383390.981403
6800.000000	568.412561	641.564159	376307885.690674
6790.000000	546.461722	699.566354	368027899.683282
6780.000000	528.466080	663.158164	361041537.291474
6770.000000	544.369730	647.941241	354685127.982771
6760.000000	593.903976	709.876733	359333441.945634
6750.000000	557.322120	654.288844	367871303.824430
6740.000000	552.283885	698.940479	373843398.695711
6730.000000	546.256744	629.731288	367721080.837547
6720.000000	540.980483	710.227981	348841970.328799
6710.000000	596.332594	732.115604	342718778.426936
6700.000000	622.287246	741.964667	341215106.998298
6690.000000	635.224514	779.108668	327706468.728987
6680.000000	710.823126	760.361436	295219771.000973
6670.000000	732.334871	794.359212	249255519.767530
6660.000000	686.281728	781.489253	224333089.259072
6650.000000	712.112048	722.876303	234441280.869046
6640.000000	720.259970	769.248205	239944292.735055
6630.000000	632.018162	626.970140	250333141.015809
6620.000000	1209.049474	1466.663872	229464760.472145
6610.000000	765.289544	850.773128	238716375.673820
6600.000000	772.955868	860.166445	233361318.958793
6590.000000	715.988882	692.566316	236321337.204321
6580.000000	663.377011	715.647213	186707818.123255
6570.000000	664.182492	706.224430	130423263.040756
6560.000000	601.177720	668.891274	122193628.660115
6550.000000	611.820499	639.439633	72768192.425012
6540.000000	568.852516	585.290608	58060590.341829
6530.000000	608.474271	639.726468	43305071.074263
6520.000000	652.564629	651.583319	54100015.780651
6510.000000	577.467649	626.254723	43876972.359717
6500.000000	637.437979	618.263214	50965370.955046
6490.000000	560.724825	581.411238	20012028.182271
6480.000000	556.723119	556.660591	2133585.117995
6470.000000	526.775723	604.430690	435734.401259
6460.000000	527.292764	509.182612	978345.177895
6450.000000	538.703927	512.224563	5605611.156466
6440.000000	569.765157	596.112923	14345752.546092
6430.000000	603.203403	609.212294	30750015.214457
6420.000000	663.937177	623.641028	37184132.268397
6410.000000	640.842092	635.137073	56458124.848194
6400.000000	770.097419	798.314611	101783370.855058
6390.000000	858.044597	814.921272	147806804.747405
6380.000000	721.799431	691.858763	166509615.616221
6370.000000	724.902478	723.518904	140204871.108900
6360.000000	693.173182	697.117749	86339081.427005
6350.000000	763.847688	715.138823	82116400.480597
6340.000000	712.002101	709.601578	65271821.443585
6330.000000	749.040805	805.235397	58925683.805304
6320.000000	736.319257	770.137484	78662932.321090
6310.000000	705.805159	690.083733	72674845.864270
6300.000000	734.602750	742.231137	102122067.940219
6290.000000	914.820311	928.092093	136348691.372270
6280.000000	882.858139	871.666441	143089543.561615
6270.000000	893.855223	1003.812898	140484979.992178
6260.000000	854.981052	867.677452	157708200.465895
6250.000000	985.897642	1132.079613	171720162.201569
6240.000000	866.752082	890.736043	185863382.018768
6230.000000	939.051826	1008.174479	163402240.797237
6220.000000	892.418189	837.332366	124384445.272542
6210.000000	911.769946	977.380888	96931492.852434
6200.000000	861.936785	914.445800	78922187.101950
6190.000000	1066.350346	1044.675562	75569969.308887
6180.000000	903.079631	845.940820	66756526.920710
6170.000000	927.947560	1015.974284	58510217.198918
6160.000000	914.517088	917.988637	72081322.491017
6150.000000	944.606689	879.803536	59893165.602154
6140.000000	993.200564	1035.717612	47560493.164846
6130.000000	862.490190	819.490760	39846271.018262
6120.000000	924.000073	1133.088332	36704175.665085
6110.000000	948.954274	886.441481	49380316.455281
6100.000000	982.801649	980.710011	43853340.111339
6090.000000	966.758475	1121.840384	35247648.786436
6080.000000	1003.546643	1009.753185	50303494.353840
6070.000000	980.089597	940.225812	49263546.650098
6060.000000	1076.835949	1157.697513	41784156.673165
6050.000000	990.293441	1088.006910	39480228.924304
6040.000000	1007.024747	1020.897417	46236250.035813
6030.000000	965.082388	986.591724	37811610.612904
6020.000000	1062.538711	1043.706066	43385954.231543
6010.000000	1071.535537	1487.167469	48548346.128407
6000.000000	1034.130801	1121.859839	31388611.730405
5990.000000	841.982724	777.147456	22522548.684096
5980.000000	1071.691108	983.643361	13805793.406182
5970.000000	974.498988	1034.938859	14169849.606171
5960.000000	1096.831904	1077.646374	16095322.401558
5950.000000	1049.291570	1147.009331	21709318.229825
5940.000000	996.869918	1037.253918	22166323.833118
5930.000000	981.436141	930.589294	22916903.333334
5920.000000	854.053027	856.848663	16092518.186646
5910.000000	891.622781	921.040810	9093942.158430
5900.000000	1020.722976	987.755539	1526414.272697
5890.000000	1008.364814	1053.944649	2271095.172755
5880.000000	1025.957440	1031.369284	8645149.413508
5870.000000	1087.103234	1175.335332	14241203.574517
5860.000000	999.106864	1014.854975	21428177.249746
5850.000000	919.568960	907.798327	23071869.291913
5840.000000	864.294939	845.118737	23275326.106046
5830.000000	924.289914	930.661573	11830520.853217
5820.000000	842.517718	873.516784	22861756.888482
5810.000000	1019.881226	1026.622473	44017703.753500
5800.000000	1061.932277	1112.263039	45238166.257527
5790.000000	1072.603348	1100.122032	55503318.045325
5780.000000	1111.779052	1101.012537	66107891.649039
5770.000000	1056.879350	1001.072168	98299551.395823
5760.000000	1149.403845	1186.278261	103668441.406135
5750.000000	1029.400944	1127.115263	110641672.717481
5740.000000	1118.871765	1047.074093	107667207.142208
5730.000000	988.038349	942.835255	75075192.582749
5720.000000	1057.054826	1122.081423	58417056.636378
5710.000000	1173.271159	1223.229790	59356860.847888
5700.000000	1214.730411	1258.336193	60172272.707182
5690.000000	1332.001944	1487.737794	75133353.932056
5680.000000	1179.934490	1258.345660	104805578.930775
5670.000000	1201.073164	1294.229701	85547513.142252
5660.000000	1046.174425	949.224088	85032814.975554
5650.000000	1089.741023	1114.978596	63567704.115575
5640.000000	1114.758940	1167.934227	44643253.517889
5630.000000	979.164824	986.612635	36152056.966379
5620.000000	1102.880840	1127.912107	25405358.906151
5610.000000	968.065465	953.177403	16177214.090543
5600.000000	1012.053408	1006.304920	15216378.234512
5590.000000	1002.740615	969.642076	15266043.516296
5580.000000	1017.191827	969.126167	11861442.120534
5570.000000	1027.337529	1041.168359	10534055.213571
5560.000000	957.915369	1033.168730	11823379.119453
5550.000000	1032.163890	1101.316126	6070275.211630
5540.000000	1026.890335	980.704256	5111617.697628
5530.000000	1034.307464	1109.340971	7964626.739059
5520.000000	1088.875482	1152.567183	12047048.900178
5510.000000	1020.136511	1196.903547	26928097.383571
5500.000000	1028.527525	1082.192696	50546231.301091
5490.000000	1099.989218	1094.338358	54799209.607197
5480.000000	1140.514218	1177.690435	49748074.810822
5470.000000	1181.428813	1204.064617	36715505.210593
5460.000000	1123.290784	1047.192579	34976321.194568
5450.000000	1155.221558	1110.895534	34196363.158386
5440.000000	1004.079830	980.999760	31256549.924644
5430.000000	1029.624556	976.827001	47568354.083812
5420.000000	950.985719	930.806436	60792745.153099
5410.000000	993.776067	911.147192	58963501.135617
5400.000000	1125.590378	1052.501441	45765163.786902
5390.000000	1091.074630	1064.932750	38988744.344367
5380.000000	910.146764	921.756519	34418354.209739
5370.000000	1049.341194	1176.326749	36617031.717168
5360.000000	971.586933	978.324711	27553156.790086
5350.000000	1071.192012	1152.776031	26790630.797361
5340.000000	1006.703523	1056.706668	27153094.216758
5330.000000	988.318344	1041.920205	25581989.151427
5320.000000	935.039633	1079.962100	19670837.280111
5310.000000	937.978660	927.669636	16093613.042530
5300.000000	860.885584	879.539964	10655292.584304
5290.000000	983.186835	966.607388	9622251.411726
5280.000000	870.860086	855.542630	12129655.095688
5270.000000	788.583091	820.049489	14188435.801170
5260.000000	851.246078	887.769337	9833943.771978
5250.000000	1010.675506	1022.362013	8959713.910006
5240.000000	910.119705	916.925934	3243419.549698
5230.000000	880.898243	882.063328	938760.082389
5220.000000	835.883098	860.577159	5970145.835493
5210.000000	878.124627	868.255717	9711711.907037
5200.000000	915.804628	834.919496	12297266.862724
5190.000000	941.002129	923.444445	7789534.875585
5180.000000	982.788491	979.839980	6508399.930338
5170.000000	903.690570	913.778755	2424838.498102
5160.000000	918.714498	898.846061	1081816.484254
5150.000000	1028.821568	1061.652657	832787.494725
5140.000000	1084.707953	1047.125197	2288950.745777
5130.000000	1122.227207	1126.972755	1702250.343466
5120.000000	949.602684	922.706015	899305.362942
5110.000000	1110.841576	1219.384202	1759783.486047
5100.000000	1144.247925	1211.491449	742490.497341
5090.000000	1203.013067	1321.706737	1143765.141069
5080.000000	1030.416391	1016.816424	2557931.272716
5070.000000	1075.021805	1106.599311	5248436.420617
5060.000000	931.923493	903.432202	6353381.157116
5050.000000	983.743400	1065.182012	7261093.526611
5040.000000	1064.179613	1010.537363	7544993.531719
5030.000000	1061.596531	1123.050291	8838980.962035
5020.000000	1119.866096	1075.658222	9838635.912092
5010.000000	952.846673	1033.275275	7608421.557125
5000.000000	1005.486764	1035.715457	5088695.894437
