

# Exactly the same as the above
# Scan parameters: power 16.000000 dBm, bandwidth 1.500000 Hz
# Frequency [MHz]	avg noise	std noise	peak value
7800.000000	651.118815	687.048472	290772.073087
7790.000000	622.181930	604.962661	187418.256466
7780.000000	561.123643	560.185614	181797.993052
7770.000000	624.882252	596.808639	123897.866696
7760.000000	647.731658	651.302456	331546.604968
7750.000000	627.960047	636.021556	363980.363432
7740.000000	566.381967	543.822282	128148.434089
7730.000000	642.685758	659.214318	107558.789916
7720.000000	533.237897	477.924966	349141.495612
7710.000000	631.722978	587.231908	316138.677453
7700.000000	623.440140	596.948023	183720.100748
7690.000000	616.580918	617.620402	301999.436129
7680.000000	698.424863	732.335130	197018.091079
7670.000000	669.622424	705.347566	145798.482903
7660.000000	640.355105	568.709733	298662.768580
7650.000000	613.552073	570.385990	324384.992986
7640.000000	607.139077	608.095629	114921.849762
7630.000000	613.198171	638.875629	173015.396118
7620.000000	604.117530	611.544722	369829.499078
7610.000000	584.137107	555.103475	354774.376131
7600.000000	643.857405	657.304139	194027.599523
7590.000000	600.682519	550.956012	258303.426221
7580.000000	680.634300	667.847322	279562.792699
7570.000000	638.949430	612.932999	149663.839446
7560.000000	686.125546	665.362974	273836.868258
7550.000000	562.386509	581.443460	275742.855178
7540.000000	597.615886	582.064895	101971.485385
7530.000000	600.579349	588.850938	223142.921708
7520.000000	734.176914	749.853354	226627.663739
7510.000000	682.240044	687.776124	155325.461898
7500.000000	740.841720	783.832948	379977.624793
7490.000000	709.893677	698.526595	345490.701502
7480.000000	729.545256	641.590573	311954.148350
7470.000000	749.506973	708.898163	458920.347995
7460.000000	722.366957	768.639134	168909.494353
7450.000000	672.775936	719.011462	203523.458703
7440.000000	738.167695	795.963358	265968.137973
7430.000000	707.745748	674.827643	122026.943436
7420.000000	700.312784	680.390975	378107.256785
7410.000000	795.709131	826.922969	153641.164529
7400.000000	761.921465	717.465765	297784.152454
7390.000000	853.830603	836.044887	263502.965581
7380.000000	809.922706	854.429152	296158.176594
7370.000000	782.576778	715.198134	111546.449643
7360.000000	714.758684	714.664789	313221.519466
7350.000000	837.886067	879.517468	233117.644667
7340.000000	678.718514	679.984004	192069.297655
7330.000000	695.418010	714.636680	97717.835034
7320.000000	728.855896	696.046544	330278.707491
7310.000000	738.630919	699.871989	311631.829765
7300.000000	716.071430	700.728530	76846.525137
7290.000000	719.787274	749.417495	120181.183208
7280.000000	693.483799	627.676048	234561.330276
7270.000000	744.750002	668.718397	176888.100169
7260.000000	711.471890	717.605652	156122.808533
7250.000000	646.296148	683.622123	168578.104536
7240.000000	656.673106	676.035714	274505.762003
7230.000000	652.623996	690.744677	155049.439661
7220.000000	668.072628	678.472373	316292.700905
7210.000000	701.116990	696.699136	270622.115827
7200.000000	673.662752	696.777018	222237.480405
7190.000000	704.129009	707.360029	220226.702519
7180.000000	605.643593	614.986872	292945.962009
7170.000000	624.381041	636.332833	180354.167007
7160.000000	601.523905	602.120793	238667.560361
7150.000000	587.028579	567.201494	322098.693598
7140.000000	579.247324	581.552218	89912.765957
7130.000000	574.263613	549.473694	154109.501157
7120.000000	563.529154	576.154951	131749.876505
7110.000000	551.699103	590.727982	23379.171059
7100.000000	561.049031	539.898768	132651.953071
7090.000000	587.262483	547.014719	88674.670794
7080.000000	566.102270	572.428091	121844.924666
7070.000000	501.873775	511.729110	158542.491933
7060.000000	508.738422	480.106675	30472.799352
7050.000000	491.857295	464.583764	44757.713249
7040.000000	527.094154	612.626340	189900.367716
7030.000000	441.792380	436.300260	186632.694475
7020.000000	488.429623	487.266924	55213.790477
7010.000000	457.592982	457.948573	64091.370926
7000.000000	478.130880	487.777080	303474.974598
6990.000000	473.405066	439.179837	78611.367926
6980.000000	474.715428	505.531302	308555.640856
6970.000000	464.391418	469.777158	300771.215304
6960.000000	475.177930	444.150333	94158.927917
6950.000000	453.645013	436.721545	126256.767127
6940.000000	495.852581	521.901740	279473.137594
6930.000000	483.301567	483.791331	190143.421179
6920.000000	488.790951	514.070319	165017.779807
6910.000000	456.994120	406.796125	221825.437558
6900.000000	432.436257	427.815001	88195.705227
6890.000000	492.980618	519.349717	78511.272686
6880.000000	475.444896	505.755607	213613.404816
6870.000000	474.447732	439.861804	255245.658228
6860.000000	449.252661	446.263051	60971.671911
6850.000000	452.225507	453.871796	97399.622950
6840.000000	454.959077	442.859920	246410.153671
6830.000000	433.488229	427.551168	197424.829795
6820.000000	458.626289	431.697155	162860.625067
6810.000000	453.737410	389.193611	212409.188475
6800.000000	421.219562	403.859708	173593.143406
6790.000000	428.603592	485.562950	93026.708561
6780.000000	385.866544	421.986823	265732.607812
6770.000000	422.550716	459.921955	173739.393659
6760.000000	433.910472	410.924257	161542.113618
6750.000000	473.286709	505.450956	276863.674738
6740.000000	438.137789	419.699293	112190.195969
6730.000000	496.706934	490.627074	152894.086537
6720.000000	452.952398	416.261193	288772.868705
6710.000000	510.018385	512.934633	176932.291758
6700.000000	462.265580	475.876898	310998.704596
6690.000000	464.597317	455.488488	189170.679852
6680.000000	449.073476	478.197696	252018.935812
6670.000000	420.559768	422.229178	262704.122756
6660.000000	443.594820	431.901371	129527.348839
6650.000000	416.136111	408.578046	142249.252700
6640.000000	459.031493	401.051226	209356.294110
6630.000000	491.808849	426.273579	124830.745834
6620.000000	503.829220	464.675631	289759.420548
6610.000000	430.720422	440.760162	153364.181173
6600.000000	478.232288	452.839689	282020.069647
6590.000000	457.989597	473.908376	228733.163087
6580.000000	460.477530	495.366030	206526.158119
6570.000000	459.286221	442.257803	179801.768956
6560.000000	460.934029	489.559556	178813.230649
6550.000000	449.461873	402.402378	269752.000667
6540.000000	447.767200	386.173722	135804.999919
6530.000000	518.419704	514.551282	262196.902084
6520.000000	447.736841	430.516286	128269.786570
6510.000000	485.111129	530.634856	125807.638674
6500.000000	538.340285	505.451128	267284.269442
6490.000000	554.175953	504.383727	210312.072234
6480.000000	528.670502	549.313138	165343.079772
6470.000000	520.126862	580.273748	182198.519468
6460.000000	591.510642	577.865130	138314.442184
6450.000000	624.232254	607.986761	185043.254500
6440.000000	557.494221	551.519472	199114.279888
6430.000000	545.756641	532.080826	293141.178252
6420.000000	616.968488	572.430929	156129.107816
6410.000000	609.987995	577.221990	306901.808327
6400.000000	609.374466	602.021501	166521.216154
6390.000000	601.913105	574.923728	173201.558172
6380.000000	583.963973	578.021058	283315.493719
6370.000000	636.850735	705.615027	330915.745625
6360.000000	586.063475	541.542157	175007.567775
6350.000000	688.191757	730.970984	329701.431137
6340.000000	598.303802	563.984522	248684.953265
6330.000000	633.114964	621.804452	374556.562742
6320.000000	662.749437	607.163335	161473.752499
6310.000000	616.230621	682.623968	378810.220506
6300.000000	676.852157	700.012867	248773.027103
6290.000000	654.982378	643.483846	166370.260720
6280.000000	644.047848	627.462730	413583.674217
6270.000000	711.742954	740.900626	390241.275602
6260.000000	691.303780	699.052896	250942.402885
6250.000000	571.848846	570.530852	405526.975181
6240.000000	666.075753	682.325249	163309.301501
6230.000000	677.483153	714.684505	337728.679027
6220.000000	704.153468	647.497789	226328.589994
6210.000000	709.736830	765.559165	304879.159344
6200.000000	772.500339	810.493852	309403.831567
6190.000000	842.164362	854.833439	165029.290488
6180.000000	745.245136	702.628253	198237.784875
6170.000000	841.029258	863.364877	346992.199348
6160.000000	802.181159	879.151504	463684.839829
6150.000000	783.514702	780.510724	422564.254754
6140.000000	697.480481	621.493669	359855.200189
6130.000000	765.532130	779.998597	221119.792771
6120.000000	779.523003	734.209610	222958.286015
6110.000000	804.057611	840.138581	326110.675263
6100.000000	795.030937	877.520945	426439.960202
6090.000000	883.883783	915.667217	366659.203432
6080.000000	803.989970	812.128468	206855.868147
6070.000000	776.493333	815.575176	109578.007135
6060.000000	844.877082	816.011529	196035.009151
6050.000000	825.310712	751.646790	237822.592150
6040.000000	856.651822	788.757871	96036.523924
6030.000000	766.692176	787.597717	241854.708105
6020.000000	924.176794	829.231737	188694.795721
6010.000000	849.437563	860.127623	186281.434379
6000.000000	819.575465	760.868253	180747.386819
5990.000000	852.338889	841.013779	269520.925931
5980.000000	823.399383	782.302202	406016.842778
5970.000000	874.476032	883.676757	348630.333152
5960.000000	816.984699	827.611300	92631.679658
5950.000000	839.556531	876.577400	295938.843859
5940.000000	822.615203	790.262258	170327.393368
5930.000000	829.264245	807.392981	187156.652086
5920.000000	916.139216	858.517814	266158.270154
5910.000000	805.769202	848.928504	440767.765551
5900.000000	944.210697	935.326930	488157.727042
5890.000000	857.494483	913.235836	454161.284002
5880.000000	979.336334	1004.397194	277033.896163
5870.000000	855.265554	925.337801	173982.103143
5860.000000	962.266354	895.932692	164056.455082
5850.000000	792.605513	809.827006	311098.923558
5840.000000	830.662003	787.522655	152590.357770
5830.000000	914.554249	854.279903	309886.926474
5820.000000	876.120166	861.248798	188034.568699
5810.000000	757.100976	763.691287	127221.541370
5800.000000	870.338373	859.660730	347627.103848
5790.000000	833.034493	804.066585	301908.716379
5780.000000	788.893225	786.759736	349124.230375
5770.000000	893.959204	873.850643	433018.573539
5760.000000	940.299529	876.179862	160453.830775
5750.000000	898.144265	907.433028	382391.673151
5740.000000	884.798554	885.481380	284795.836591
5730.000000	923.130306	909.140526	197658.404825
5720.000000	901.412846	853.417321	510284.950398
5710.000000	851.572644	843.598740	416456.047285
5700.000000	841.498580	805.241688	423566.344404
5690.000000	904.032990	913.286347	649786.835512
5680.000000	859.886454	832.275818	733436.005380
5670.000000	990.933635	1155.970333	430952.674290
5660.000000	917.626795	896.430247	424646.688237
5650.000000	957.594535	945.675656	575949.266484
5640.000000	934.990050	1082.692765	348204.090999
5630.000000	891.737997	842.124262	393506.826659
5620.000000	934.071498	886.131686	537654.623687
5610.000000	947.976702	983.873241	365790.972119
5600.000000	922.451266	928.780940	276124.026748
5590.000000	917.735156	879.674683	497731.308403
5580.000000	922.342399	877.407198	366121.726775
5570.000000	925.899544	1049.267865	378947.588874
5560.000000	893.677442	899.909200	444454.236281
5550.000000	832.412148	832.230576	473245.233458
5540.000000	977.794310	1043.233941	349347.872744
5530.000000	895.233741	882.714217	510817.340079
5520.000000	1050.557169	1061.563728	320613.154236
5510.000000	949.236464	967.283189	336874.240879
5500.000000	942.956243	891.214163	229974.208802
5490.000000	895.998247	907.189236	520922.024222
5480.000000	933.589696	954.425272	474318.653310
5470.000000	892.709939	805.402589	409854.171910
5460.000000	974.189715	917.148373	777067.573612
5450.000000	922.500055	994.129621	565726.977316
5440.000000	931.437996	907.124468	639653.730462
5430.000000	803.269155	777.563509	824730.891466
5420.000000	978.258980	938.227729	480379.993225
5410.000000	925.502349	902.925606	677244.761579
5400.000000	932.417712	919.110129	676997.388091
5390.000000	896.561990	914.012478	354767.777100
5380.000000	809.697051	781.381335	639258.771755
5370.000000	899.657734	835.423271	547505.714218
5360.000000	893.031905	851.138470	707014.820452
5350.000000	924.891555	922.174490	680124.062260
5340.000000	811.118456	747.654650	584815.432466
5330.000000	825.518902	860.298925	398098.630419
5320.000000	832.274613	834.284305	513899.045998
5310.000000	859.578946	784.469945	795951.896360
5300.000000	929.607792	915.510264	1054380.906608
5290.000000	842.332411	815.254017	1105789.568552
5280.000000	827.960483	775.313645	604445.210989
5270.000000	804.279970	794.285709	561546.665336
5260.000000	803.958992	857.001355	361444.948575
5250.000000	909.012725	936.528307	261528.976800
5240.000000	842.959968	798.733937	226019.444242
5230.000000	762.005840	762.746465	302124.095163
5220.000000	731.395297	714.199201	371268.919754
5210.000000	848.048818	880.724719	467602.239279
5200.000000	891.610905	865.273098	626524.442515
5190.000000	867.030352	851.034156	769782.160028
5180.000000	838.328535	835.576547	499266.170028
5170.000000	909.077880	908.647484	524757.004292
5160.000000	901.811552	878.967973	701886.865780
5150.000000	916.211532	870.628716	537920.436025
5140.000000	978.914788	965.556444	931489.808178
5130.000000	895.460661	820.906789	651450.491446
5120.000000	934.641698	871.492699	735811.890516
5110.000000	983.535984	941.210074	808170.603203
5100.000000	1022.820975	969.833498	550826.800979
5090.000000	1009.038968	974.867775	641808.513998
5080.000000	959.236172	1008.104023	423794.101864
5070.000000	994.828714	1022.306383	526175.756616
5060.000000	1003.277755	993.889880	377860.740278
5050.000000	1020.350017	1041.784535	227327.007329
5040.000000	1042.323981	1060.328622	266897.659720
5030.000000	933.887567	999.298178	65104.277054
5020.000000	1033.772888	1125.892022	91345.994661
5010.000000	1096.981068	994.736502	197683.541895
5000.000000	993.303230	995.813449	186507.275540
