

# Now at 21kHz offset
# Scan parameters: power 16.000000 dBm, bandwidth 1.500000 Hz
# Frequency [MHz]	avg noise	std noise	peak value
6100.000000	921.436705	1028.577948	237341.263504


# 22kHz offset
# Scan parameters: power 16.000000 dBm, bandwidth 1.500000 Hz
# Frequency [MHz]	avg noise	std noise	peak value
8000.000000	731.116675	723.345437	177002.566245
7990.000000	625.970426	656.113952	379172.285880
7980.000000	714.360572	692.026198	324368.540404
7970.000000	650.372312	615.135995	211434.476649
7960.000000	684.467080	678.919068	199452.129857
7950.000000	686.020148	643.653694	312150.708744
7940.000000	688.312473	726.786111	283860.850055
7930.000000	652.853521	590.191205	209987.409822
7920.000000	719.412699	709.753655	187096.504832
7910.000000	703.003280	689.519246	318857.802197
7900.000000	720.156226	711.592688	256835.937417
7890.000000	687.155232	650.935102	155432.102203
7880.000000	731.111769	699.836114	190814.520216
7870.000000	669.814012	643.021251	261204.395793
7860.000000	672.068220	654.872545	215691.676377
7850.000000	691.390493	668.468589	147028.865201
7840.000000	636.920382	614.864351	168519.474623
7830.000000	596.806931	625.433343	165251.744410
7820.000000	638.662498	633.902615	137206.883792
7810.000000	635.983560	621.627735	166916.695334
7800.000000	664.077306	700.396281	194611.448679
7790.000000	695.276199	698.421677	165306.098280
7780.000000	584.486656	601.826735	217772.069400
7770.000000	609.634473	577.367065	245395.955862
7760.000000	620.883627	619.966072	302878.319119
7750.000000	591.338030	591.973546	226214.544767
7740.000000	632.825995	620.739371	212112.413274
7730.000000	626.161768	602.426194	212659.103654
7720.000000	653.846476	634.810109	234184.085372
7710.000000	693.260776	716.252725	271244.258061
7700.000000	642.425270	669.006718	289833.516910
7690.000000	609.747362	611.983078	274852.208573
7680.000000	643.703200	673.703164	210880.728588
7670.000000	669.029894	701.968159	201116.177110
7660.000000	607.688717	575.326834	178270.026000
7650.000000	606.211292	611.499831	253596.871976
7640.000000	614.288314	591.093751	255598.621091
7630.000000	582.065881	577.535748	290164.857190
7620.000000	609.664958	654.686187	268764.183155
7610.000000	668.022238	720.903937	198896.196231
7600.000000	655.861539	644.719254	208705.775284
7590.000000	678.932085	721.209180	241725.913160
7580.000000	677.415679	693.833892	282229.728295
7570.000000	613.692548	558.690931	260663.385489
7560.000000	628.007895	625.783942	225587.320535
7550.000000	615.801929	655.745362	148560.596328
7540.000000	604.241670	563.265198	144268.045631
7530.000000	638.941739	588.939542	162937.327701
7520.000000	689.030362	668.021810	199556.488569
7510.000000	694.037567	695.350485	253831.349456
7500.000000	730.001360	735.310738	349109.070557
7490.000000	721.645345	731.771595	344516.175865
7480.000000	753.547381	735.241878	369513.636802
7470.000000	750.964260	693.775641	397611.353229
7460.000000	731.061974	795.845725	282400.722820
7450.000000	710.664054	686.237997	256957.758026
7440.000000	694.214852	637.466112	189375.145912
7430.000000	735.918003	814.914945	169342.377073
7420.000000	773.278702	739.304290	164917.899240
7410.000000	789.561358	800.588421	203857.883513
7400.000000	782.539133	777.096919	185254.501954
7390.000000	767.732173	705.948441	263893.512364
7380.000000	821.459973	807.897592	289299.926477
7370.000000	831.763454	803.824576	258859.864736
7360.000000	700.322392	751.964938	234644.915976
7350.000000	731.187323	716.421480	203675.000849
7340.000000	736.759707	718.436081	161536.514042
7330.000000	776.839952	817.991635	214996.488702
7320.000000	684.629273	757.553065	243258.058901
7310.000000	739.934481	773.093443	166726.515388
7300.000000	748.364519	758.008001	135268.505339
7290.000000	792.922529	741.443179	134961.220856
7280.000000	720.488657	822.356272	151719.608961
7270.000000	777.912815	690.960544	161923.971021
7260.000000	738.133294	755.776563	145229.601924
7250.000000	634.680329	707.178651	209230.911056
7240.000000	663.417490	674.225307	223580.127665
7230.000000	646.413363	643.349148	175529.128350
7220.000000	621.930950	606.259853	200415.384556
7210.000000	711.938464	722.457237	284631.826182
7200.000000	736.909916	772.168763	304190.453533
7190.000000	676.428577	622.665663	293865.478055
7180.000000	715.908017	709.306959	304429.751977
7170.000000	637.018053	578.819586	174270.029404
7160.000000	646.572777	668.434516	133365.743556
7150.000000	654.395123	703.444003	156833.281744
7140.000000	600.532797	528.676450	155023.112284
7130.000000	632.542049	614.284288	162680.200104
7120.000000	584.344365	539.744761	141353.001343
7110.000000	569.044766	608.392301	88183.420840
7100.000000	588.331595	596.305228	83408.301906
7090.000000	564.129180	540.622607	73214.509135
7080.000000	617.453584	600.868137	65006.568918
7070.000000	548.648187	570.489594	108953.315228
7060.000000	557.350629	533.503576	83886.811856
7050.000000	538.628511	487.345597	117380.635121
7040.000000	523.640478	554.340910	112627.778442
7030.000000	554.418760	536.412369	150106.429059
7020.000000	494.703470	514.024828	195734.040265
7010.000000	454.914983	457.658025	172054.488908
7000.000000	454.407238	433.111892	207011.327494
6990.000000	500.419068	532.142817	200161.570722
6980.000000	449.225105	469.493189	181072.397082
6970.000000	496.591530	443.043387	167450.586669
6960.000000	450.610271	480.942686	169916.919587
6950.000000	507.611299	601.127010	227318.363502
6940.000000	508.812355	471.820801	218319.411573
6930.000000	531.161793	571.529104	171655.123490
6920.000000	491.121451	486.125300	161501.185588
6910.000000	435.525744	410.302860	105275.845240
6900.000000	486.357688	464.528925	118165.844509
6890.000000	445.151569	468.092334	146920.505406
6880.000000	445.666527	426.719731	181173.867737
6870.000000	432.927649	439.253907	163578.099676
6860.000000	449.946053	445.287107	154111.362097
6850.000000	452.578178	441.984648	129131.682908
6840.000000	442.474028	460.502955	120947.941307
6830.000000	459.823404	474.690135	181942.988025
6820.000000	455.313095	481.715407	174755.395395
6810.000000	454.261419	471.536843	221781.666479
6800.000000	419.904801	442.998293	213500.284868
6790.000000	394.083944	345.747606	145267.567702
6780.000000	428.436599	490.279622	141795.693052
6770.000000	439.616493	410.237426	158613.012306
6760.000000	416.794027	377.399841	154675.444772
6750.000000	459.987198	477.277679	146043.218654
6740.000000	477.468964	449.978051	176033.867904
6730.000000	523.130269	481.984710	205666.585440
6720.000000	485.336601	479.897550	225767.043446
6710.000000	502.578116	450.594910	260156.357090
6700.000000	453.544298	412.413960	273663.993540
6690.000000	498.055667	476.518743	186324.595932
6680.000000	475.384178	481.846400	171875.188894
6670.000000	412.238740	391.454634	202470.500841
6660.000000	468.666887	451.275199	166684.175432
6650.000000	453.191111	401.955636	169610.195316
6640.000000	455.919616	485.261828	167146.644980
6630.000000	469.965784	504.968401	167872.552326
6620.000000	477.988476	476.818293	173271.650908
6610.000000	488.633131	480.949632	188194.347953
6600.000000	486.275566	500.432262	218408.184855
6590.000000	461.452652	474.930830	142012.028708
6580.000000	485.171892	522.474517	147834.692468
6570.000000	449.850158	468.832463	155272.602295
6560.000000	459.727268	445.217127	138050.437401
6550.000000	490.993643	493.114151	163229.297830
6540.000000	454.170514	456.437319	187660.642319
6530.000000	494.318016	487.555885	158404.577359
6520.000000	523.557751	516.732738	175570.845007
6510.000000	500.664967	562.165950	189115.970227
6500.000000	555.064819	520.261238	221924.405453
6490.000000	518.211850	526.364354	201909.686949
6480.000000	527.031164	569.362805	172496.191750
6470.000000	545.884158	533.808804	126906.548307
6460.000000	515.217042	494.201296	115628.300470
6450.000000	528.611166	547.116409	166939.980992
6440.000000	562.397592	573.020176	221109.825459
6430.000000	580.544982	554.404056	234146.454201
6420.000000	530.795578	547.990861	256106.932604
6410.000000	584.704759	628.087797	284951.839862
6400.000000	596.407377	590.122856	240205.503404
6390.000000	567.593861	604.217388	262881.027177
6380.000000	631.463441	606.639461	273464.487705
6370.000000	692.620632	628.076621	226089.661079
6360.000000	654.270729	689.817412	270317.962772
6350.000000	599.592995	618.595191	253102.703465
6340.000000	626.325192	607.502663	295619.999855
6330.000000	660.877297	761.089907	216628.881339
6320.000000	640.494546	629.352613	221698.112795
6310.000000	709.102538	722.527567	238975.799509
6300.000000	710.148966	737.881790	301978.601434
6290.000000	652.855023	703.304208	308691.186566
6280.000000	759.761466	826.039516	363974.581274
6270.000000	682.864107	668.959873	265775.714493
6260.000000	678.399623	675.170370	276574.764572
6250.000000	659.445926	648.679289	252540.379974
6240.000000	666.453620	626.672411	224921.855812
6230.000000	681.865992	618.273580	214940.381164
6220.000000	698.214641	627.638772	239820.892678
6210.000000	679.822642	694.329947	276610.204969
6200.000000	724.493931	751.790110	352142.124957
6190.000000	763.698588	769.126121	255089.748070
6180.000000	773.444388	767.229231	292445.003043
6170.000000	760.419361	722.505471	281049.474256
6160.000000	817.519009	797.587032	265766.160383
6150.000000	744.501980	747.284548	234268.970210
6140.000000	827.130136	798.094781	363127.030114
6130.000000	757.580675	719.953148	314374.949558
6120.000000	767.789979	835.107121	371673.723308
6110.000000	862.910535	878.459939	341247.346572
6100.000000	847.777336	775.364148	300707.300238
6090.000000	844.049572	818.937785	230278.513278
6080.000000	896.579584	924.780718	221698.934445
6070.000000	865.132327	788.970717	254666.632053
6060.000000	911.023949	892.708479	118113.919533
6050.000000	827.426990	817.471955	189322.795345
6040.000000	888.245604	903.557594	205421.716642
6030.000000	890.933878	923.759931	177690.844460
6020.000000	831.220401	821.945368	98011.001456
6010.000000	897.607996	883.922746	119237.073220
6000.000000	901.923304	902.227233	254579.568528
5990.000000	816.767347	770.280162	236187.384978
5980.000000	862.557447	852.016044	297276.995141
5970.000000	815.321721	852.312963	242480.454004
5960.000000	903.001732	866.873118	259887.068715
5950.000000	848.969162	848.418574	287382.879955
5940.000000	847.600981	835.404819	240467.750151
5930.000000	912.838957	866.553298	307299.385834
5920.000000	827.029579	812.343576	305821.214088
5910.000000	968.930249	924.868579	371564.355847
5900.000000	895.726239	916.584293	400602.189338
5890.000000	864.521367	894.651955	307512.783560
5880.000000	899.560218	966.983794	317618.482875
5870.000000	862.540206	951.506001	258907.978185
5860.000000	833.970574	823.081765	325168.911431
5850.000000	845.627366	909.533331	279266.866741
5840.000000	797.083650	726.307994	272985.097282
5830.000000	894.166113	892.188925	241330.450635
5820.000000	833.570823	826.716807	219550.375035
5810.000000	907.960593	903.331031	235486.898497
5800.000000	957.546473	972.357025	234781.419559
5790.000000	919.324941	872.368675	340341.115425
5780.000000	886.323660	824.473713	288554.524582
5770.000000	850.363752	849.299385	285049.058954
5760.000000	775.943139	791.645213	303382.482965
5750.000000	847.973994	854.393037	321088.929566
5740.000000	969.182063	962.648845	396952.765229
5730.000000	903.973901	985.213183	277025.494375
5720.000000	929.682672	974.375164	305867.418439
5710.000000	863.466749	887.698993	354915.140666
5700.000000	992.672811	950.761559	397819.704723
5690.000000	929.218096	972.341010	503643.081831
5680.000000	908.141342	909.234463	570941.395267
5670.000000	1053.277178	1102.262844	476986.629611
5660.000000	927.621836	979.647210	525845.805812
5650.000000	932.728304	949.892489	541374.968228
5640.000000	1040.992728	1129.575970	555703.569583
5630.000000	943.140392	1013.061052	342515.012389
5620.000000	985.793957	984.876422	533231.632126
5610.000000	980.336167	1066.303094	346810.654629
5600.000000	942.942356	883.260344	308914.088916
5590.000000	985.945856	935.844551	318299.660926
5580.000000	1054.153732	1114.196003	269901.103453
5570.000000	1001.564761	1061.393382	263649.604269
5560.000000	986.519660	976.395717	302123.272225
5550.000000	1003.975421	1082.424007	336131.159096
5540.000000	1011.109405	1035.649340	314412.452394
5530.000000	1037.344230	990.654139	269009.284562
5520.000000	980.614716	990.209711	236725.319189
5510.000000	957.330245	897.928748	358707.581775
5500.000000	991.815528	1033.753609	293028.736072
5490.000000	1028.514655	1009.136430	382608.083837
5480.000000	977.696799	911.225703	415322.292876
5470.000000	1004.056218	1055.469917	450671.424559
5460.000000	1003.174128	947.461081	471317.635590
5450.000000	951.659933	893.582467	539795.280948
5440.000000	814.546484	887.897692	717101.858793
5430.000000	948.445024	923.152272	569790.948024
5420.000000	950.919872	997.307590	653146.098950
5410.000000	1008.717047	1202.070057	512286.111097
5400.000000	870.812944	864.477879	520948.128464
5390.000000	943.652361	964.171034	552741.153350
5380.000000	978.722244	948.399680	438199.520007
5370.000000	889.512450	873.451969	526961.521590
5360.000000	912.035042	897.369868	525225.374573
5350.000000	993.711252	1030.685684	522390.761360
5340.000000	911.031666	868.283790	543873.304559
5330.000000	867.717613	920.733473	549479.019702
5320.000000	844.622174	890.742942	607911.021773
5310.000000	849.832726	804.482246	812127.986431
5300.000000	965.563003	1007.458074	857771.273181
5290.000000	846.787130	853.098638	784944.420205
5280.000000	891.217701	955.642428	705380.147406
5270.000000	759.772667	817.641574	608593.676206
5260.000000	729.714818	783.007452	534222.741019
5250.000000	922.677741	925.719391	389405.160677
5240.000000	912.280359	1005.896937	223717.195181
5230.000000	830.197403	800.340980	230090.743679
5220.000000	785.644697	860.569797	342703.725804
5210.000000	813.228971	817.112793	266427.320542
5200.000000	876.057665	944.381152	631786.936290
5190.000000	886.120303	843.104342	764817.425935
5180.000000	857.110999	755.767870	622705.643386
5170.000000	902.008814	821.346510	724143.803555
5160.000000	869.343031	864.510532	755906.497950
5150.000000	913.812673	841.849973	746558.533949
5140.000000	1011.002749	1019.526622	688559.714715
5130.000000	935.598667	1014.792934	692479.982897
5120.000000	924.034120	884.708632	740412.373258
5110.000000	1007.743308	948.847073	589151.975347
5100.000000	942.249796	946.630060	646887.300391
5090.000000	969.268199	951.875907	592559.526662
5080.000000	931.756314	901.387207	557745.371077
5070.000000	1029.296809	926.492428	418573.338184
5060.000000	975.605337	1027.626850	414361.509355
5050.000000	954.168784	925.658313	295894.303282
5040.000000	1008.131122	996.195691	158844.438204
5030.000000	1087.081533	1139.577615	116757.264638
5020.000000	1082.894359	1097.656515	78306.151618
5010.000000	894.968863	921.170212	128750.926244
5000.000000	1045.298773	953.213550	98833.782992
