


# AP0DEG, exactly same light intensity on diode as 27
5.5	1860.10736572	9950.684	14676.6692333	9514.16	6074.93220896	10527.83	14705.4655729
5.501	23.286125679	9981.445	108.355400552	9465.82	173.935017611	10495.61	148.257870862
5.502	26.2094216702	10025.39	129.365587394	9496.582	124.663334008	10478.03	198.214183366
5.503	25.7298587018	9971.191	183.738883431	9508.301	171.375723622	10541.02	302.741363018
5.504	25.0764427125	9978.516	149.685403598	9522.949	231.090061569	10469.24	221.419514684
5.505	29.9092102711	10034.18	336.824156899	9517.09	134.652143519	10466.31	196.396166948
5.506	28.4594888121	9952.148	181.386266486	9543.457	134.902046486	10458.98	160.475532151
5.507	31.4080960742	10037.11	366.149029117	9471.68	216.64133412	10542.48	222.400015723
5.508	33.9088856783	9985.84	145.319914969	9493.652	178.72380112	10510.25	137.936053728
5.509	36.1677504086	9993.164	251.588039024	9468.75	221.754452467	10532.23	231.623216654
5.51	38.1585559364	10048.83	279.209536969	9480.469	363.752893775	10482.42	183.936777863
5.511	42.6736804687	10023.93	251.353403055	9540.527	229.677489634	10453.12	334.896986209
5.512	42.6746585539	9953.613	250.892833715	9520.02	216.607303702	10489.75	161.468401943
5.513	46.9772549913	9996.094	238.096439884	9512.695	279.310859776	10461.91	284.961523792
5.514	50.9722362147	10037.11	204.070832216	9500.977	237.204361766	10458.98	285.997393549
5.515	47.552777364	9963.867	352.660145961	9503.906	232.729503765	10502.93	435.457964354
5.516	56.4241207927	9999.023	357.52007232	9514.16	381.402226104	10469.24	304.384045132
5.517	53.3957451978	10004.88	425.872941512	9534.668	302.076551708	10549.8	418.92148674
5.518	58.8568556136	10035.64	349.334696703	9473.145	310.758772225	10480.96	418.512209479
5.519	62.0642002265	9962.402	416.377759812	9505.371	371.871073062	10535.16	263.526789279
5.52	67.5020547539	10000.49	301.096155467	9455.566	613.127343567	10514.65	470.844988405
5.521	69.4523566291	10026.86	518.936185312	9484.863	367.102550409	10498.54	604.696629942
5.522	84.4908656822	10035.64	499.235637056	9483.398	402.485382244	10489.75	468.736882791
5.523	87.6118903098	10025.39	344.984556819	9499.512	782.542615472	10483.89	363.044623758
5.524	84.3310312308	10032.71	667.876941919	9483.398	671.492841932	10486.82	670.311761117
5.525	94.5881876668	10026.86	528.524925333	9527.344	753.720813127	10482.42	526.083737731
5.526	102.159549557	9963.867	801.447319303	9479.004	681.677001377	10492.68	654.225054756
5.527	109.286121421	9978.516	867.727611362	9540.527	778.30821009	10475.1	645.730154804
5.528	134.318736813	10035.64	722.115739084	9483.398	841.439477285	10478.03	660.103374667
5.529	125.977954082	9974.121	1044.74169188	9530.273	1415.0308242	10539.55	690.255266853
5.53	151.177512187	9972.656	651.436962585	9471.68	1018.05372262	10461.91	519.928297922
5.531	158.283108435	9952.148	655.780432915	9476.074	1099.12461546	10491.21	659.912304116
5.532	159.438951512	10013.67	839.945275827	9455.566	1285.32660398	10488.28	715.254318243
5.533	176.636009399	9952.148	1176.45381482	9487.793	558.284837172	10451.66	833.131641862
5.534	191.583039029	9996.094	1268.86412278	9544.922	1360.03199338	10469.24	939.131555328
5.535	189.919604888	10006.35	785.507548722	9476.074	832.25190488	10498.54	815.641052223
5.536	191.074635899	9968.262	1288.52080318	9499.512	979.28311237	10451.66	1301.98285482
5.537	197.230875623	10007.81	1182.76605363	9462.891	1081.4049521	10501.46	1009.33568606
5.538	208.947836305	9997.559	1405.8442552	9457.031	1366.29948004	10543.95	1383.44978735
5.539	219.005585448	10019.53	726.503356517	9547.852	1174.94411832	10494.14	1019.82972441
5.54	221.124801801	10028.32	1037.00200631	9540.527	1860.36940495	10485.35	947.414919472
5.541	224.824198259	9974.121	1153.10124956	9470.215	1681.32327761	10516.11	1545.72552582
5.542	242.564115346	10041.5	1687.3468446	9533.203	1527.95117366	10470.7	1381.46442041
5.543	230.259019119	9952.148	1449.45930705	9547.852	1438.16789155	10466.31	1391.42864477
5.544	221.517115133	9972.656	2055.86090507	9464.355	1555.32739346	10543.95	1812.27228448
5.545	234.411128652	9952.148	1503.73018895	9540.527	1760.92440057	10457.52	1376.16657781
5.546	227.909890636	10001.95	937.174577532	9547.852	1070.20610297	10513.18	1070.75400525
5.547	223.917081321	9969.727	1483.68576516	9487.793	1353.76065492	10507.32	1179.29737305
5.548	229.063618832	9984.375	1393.83466587	9474.609	1913.89258268	10519.04	902.998856943
5.549	210.30877363	10003.42	2304.0445101	9540.527	1590.58112138	10517.58	1386.66618541
5.55	214.310789727	10041.5	1606.03461204	9467.285	2301.10361869	10469.24	1766.76162667
5.551	203.507087675	10019.53	1411.58358782	9496.582	1754.9706399	10466.31	982.620921368
5.552	179.470311438	10041.5	831.496895531	9514.16	1610.53006759	10458.98	1081.27848332
5.553	190.677034124	10001.95	1158.67114856	9511.23	796.575640075	10492.68	753.062177149
5.554	170.007882521	9994.629	1747.69283242	9455.566	1179.11612954	10453.12	979.752660121
5.555	167.403784576	9966.797	673.496752522	9514.16	1034.94737049	10489.75	1251.61909155
5.556	165.342446707	9996.094	1054.86353374	9537.598	946.634312739	10450.2	1428.90178248
5.557	162.910099575	10035.64	834.474862118	9547.852	1254.69573892	10488.28	1133.69555044
5.558	140.958108247	10042.97	923.767677524	9531.738	1010.95760655	10457.52	841.907178968
5.559	139.012261087	9997.559	881.793451009	9503.906	788.595465302	10485.35	1020.25907922
5.56	136.518881524	9979.98	705.496138333	9544.922	874.798235829	10501.46	968.085758855
5.561	131.094357937	10019.53	803.149736288	9541.992	664.830467801	10454.59	987.924748709
5.562	121.069735282	9987.305	1879.56386662	9505.371	644.283916442	10488.28	475.941283532
5.563	117.731786751	9950.684	785.576115976	9461.426	807.424464624	10495.61	855.277061259
5.564	116.084882913	10003.42	773.740746028	9467.285	632.545096163	10483.89	587.007252226
5.565	107.250752184	9968.262	816.984553246	9500.977	407.276004825	10456.05	596.188833524
5.566	102.257538883	10044.43	658.603008195	9462.891	588.252079772	10530.76	889.929882477
5.567	102.392912462	10015.14	508.539725875	9508.301	741.667161661	10527.83	850.078349964
5.568	93.9136432288	10035.64	481.468368988	9486.328	661.958469477	10486.82	421.355595507
5.569	92.0917534723	10023.93	532.088034977	9540.527	619.20484285	10535.16	572.87053351
5.57	86.6845395402	9963.867	331.088008591	9473.145	821.415630804	10483.89	486.209983378
5.571	80.4281379864	10018.07	420.508468027	9511.23	446.332879443	10545.41	411.599074071
5.572	78.6638888225	10009.28	411.886333252	9547.852	448.729817648	10480.96	330.260417822
5.573	74.3911883352	9999.023	704.449697836	9522.949	266.000321561	10548.34	556.240577825
5.574	71.8943792951	9985.84	752.245123212	9503.906	425.210722923	10485.35	523.143104836
5.575	72.6520318715	10044.43	449.761769046	9471.68	466.137674184	10467.77	335.427071178
5.576	68.3787456809	10031.25	486.799136719	9512.695	448.983959427	10501.46	604.620162021
5.577	65.1519838317	9974.121	308.434552024	9498.047	459.119462303	10485.35	374.259276196
5.578	65.8650437148	9952.148	311.903643842	9534.668	423.022895983	10491.21	331.512196834
5.579	62.0915802127	9955.078	457.047629702	9451.172	517.37435401	10532.23	394.715913041
5.58	64.5744238941	10037.11	406.105273509	9473.145	370.764914831	10521.97	367.377283301
5.581	55.9780424544	10016.6	448.786120452	9457.031	327.280882964	10478.03	483.230739205
5.582	55.6475183864	10025.39	374.211813307	9459.961	413.958042226	10521.97	259.87194871
5.583	56.0323581832	10018.07	283.916161736	9536.133	179.534628003	10473.63	244.380935919
5.584	54.4417556678	9996.094	238.574866981	9477.539	259.338494482	10535.16	266.744102118
5.585	48.5150556556	9990.234	395.303882367	9467.285	252.055207358	10541.02	419.838569139
5.586	50.5721836527	10047.36	345.311877881	9455.566	402.460482658	10453.12	302.045436099
5.587	45.0199543495	10034.18	455.007594854	9533.203	455.909361483	10502.93	233.888436992
5.588	44.6165181061	9993.164	275.087424626	9511.23	394.174178729	10514.65	328.169294292
5.589	40.6210505488	9971.191	207.810611166	9464.355	274.73663788	10536.62	390.416197505
5.59	40.9533542283	9956.543	175.802892149	9506.836	212.851553461	10479.49	245.647248387
5.591	35.5120211101	10022.46	212.912063704	9486.328	275.66753736	10501.46	234.754126781
5.592	36.1099487028	9991.699	284.678926483	9539.062	228.635109271	10510.25	333.306533071
5.593	32.6992023761	10045.9	261.090328644	9486.328	382.474270029	10526.37	362.244096281
5.594	32.0113239082	9953.613	227.098585398	9481.934	152.390394124	10513.18	164.129530822
5.595	32.3982736767	10048.83	140.888832196	9470.215	290.574023732	10472.17	211.501283505
5.596	28.7143749427	9993.164	195.967432928	9511.23	143.958973023	10467.77	195.634697071
5.597	28.0735011911	10031.25	268.069240682	9508.301	146.233971188	10519.04	168.426345978
5.598	26.8287329952	10029.79	208.988889384	9484.863	147.253543201	10527.83	267.125323476
5.599	24.4332531783	9958.008	134.179607265	9455.566	186.983127367	10497.07	106.889661444
5.6	23.0049676585	9955.078	201.440874073	9544.922	175.157469453	10508.79	125.552319044
5.601	20.8762073355	10040.04	100.174509578	9451.172	140.749083308	10541.02	149.143869626
5.602	20.3678816465	10029.79	194.306832543	9451.172	104.50834898	10517.58	126.810764891
5.603	20.1183834884	9978.516	162.016556714	9511.23	151.223978948	10495.61	74.9423550164
5.604	18.9897837786	9981.445	95.1877143497	9541.992	157.865631543	10467.77	55.3765602075
5.605	17.8262649616	10010.74	79.9611910688	9530.273	99.966647032	10497.07	161.045650714
5.606	17.1740612388	9994.629	96.8067421956	9518.555	119.353596344	10482.42	158.062379018
5.607	16.6713195631	10021.0	78.6772658131	9515.625	131.958889151	10508.79	85.6203314894
5.608	17.4861531005	9956.543	91.1215553677	9471.68	143.76546899	10451.66	97.1079966369
5.609	16.469911041	9959.473	70.5022789211	9499.512	110.824058458	10472.17	59.1700879375
5.61	14.9337899097	9971.191	109.097448962	9493.652	113.246071082	10549.8	63.2521620321
5.611	14.3242873194	10034.18	124.789670687	9514.16	77.9733141038	10501.46	80.8062387385
5.612	14.6662405981	10029.79	80.6109170478	9489.258	69.9645237301	10456.05	76.4267727007
5.613	14.3308931334	10013.67	87.0825802036	9506.836	68.6318843085	10523.44	61.7595675008
5.614	14.5872559447	10009.28	79.633992639	9520.02	52.6532668953	10470.7	60.4500107707
5.615	12.560922154	10045.9	65.0728751793	9484.863	44.4942369294	10458.98	69.7880645343
5.616	12.9473014705	9962.402	65.0151862354	9467.285	91.4065397273	10519.04	100.326056238
5.617	12.7639900894	9984.375	80.6909128365	9480.469	75.1099329764	10488.28	55.5501804382
5.618	11.8427684927	10019.53	62.466506076	9530.273	110.695853267	10510.25	39.457498799
5.619	11.5252989391	10012.21	103.342865697	9467.285	80.428658064	10466.31	68.6030623007
5.62	11.7704922612	10003.42	55.0575999621	9521.484	86.3050572914	10517.58	57.8968570695
5.621	10.693644977	10015.14	49.4252775846	9525.879	104.266880182	10535.16	67.0738073476
5.622	10.7692240114	9979.98	51.6526543888	9496.582	41.9501497869	10475.1	109.442123603
5.623	10.9874211613	9968.262	97.1983655278	9474.609	46.6990789804	10480.96	86.5302003006
5.624	9.38920007716	10000.49	42.5450020594	9477.539	62.0690913413	10520.51	68.9989655772
5.625	121.858348673	9996.094	573.167037068	9503.906	423.981349771	10476.56	544.82844976
5.626	9.58340474964	10029.79	93.0896432944	9528.809	60.7820273693	10454.59	71.6730647792
5.627	8.93811514085	10013.67	51.3465853298	9467.285	41.6080643507	10514.65	58.5917234386
5.628	8.90951443113	9987.305	36.3769592884	9514.16	54.1721553179	10527.83	71.6306320502
5.629	8.39329691519	9991.699	55.7516785247	9474.609	37.9680935164	10472.17	45.0721824756
5.63	7.95074563609	9974.121	53.0077089238	9543.457	35.518066021	10461.91	44.0948563753
5.631	7.82259427151	9979.98	54.6060774563	9540.527	51.7081005244	10461.91	65.6586839726
5.632	8.8736409997	10016.6	40.0128225508	9502.441	32.9056194684	10516.11	54.6485012301
5.633	8.02643332805	10040.04	39.3250981905	9459.961	57.1997422543	10516.11	28.772617866
5.634	7.9014746656	10004.88	60.0761193403	9549.316	28.3079192166	10529.3	48.1276288313
5.635	7.3469116108	9997.559	49.286792454	9515.625	60.978780378	10483.89	66.6307890755
5.636	7.36104084099	10028.32	33.8856095396	9503.906	29.8444610684	10519.04	53.9529848165
5.637	6.85771232605	9982.91	41.1681119394	9457.031	43.7561991008	10517.58	81.6376163253
5.638	7.08089230514	10009.28	43.7212363887	9451.172	55.1107254493	10501.46	47.6321113212
5.639	6.99665294633	9968.262	27.6758976256	9531.738	42.4368180551	10526.37	47.8636703242
5.64	7.06177470642	10044.43	31.1594835566	9490.723	44.9414972625	10511.72	45.7165387628
5.641	6.94430521877	9991.699	45.3379372411	9452.637	41.573610835	10451.66	49.5438410175
5.642	6.98830072962	10041.5	49.866186113	9493.652	41.7686345086	10482.42	58.0218297856
5.643	6.76494763276	9960.938	34.7859135687	9517.09	58.8384978129	10502.93	42.1017663307
5.644	6.64299971207	9969.727	51.4931994344	9483.398	42.2196911465	10463.38	62.0956432266
5.645	6.52027730712	10023.93	47.7377628593	9495.117	40.0691514054	10473.63	32.3905964606
5.646	6.37973788578	10006.35	39.3188166494	9480.469	45.2675886312	10546.88	58.5569102221
5.647	6.49643062563	10022.46	43.288682347	9499.512	46.0496282401	10510.25	61.7435835726
5.648	6.40597476227	9974.121	36.1387447304	9512.695	49.3787216549	10510.25	48.968526009
5.649	6.58311114401	9984.375	28.2460887253	9549.316	33.5172913972	10472.17	49.9113905718
5.65	6.38655728176	9977.051	42.8994625309	9518.555	37.5820076614	10495.61	39.1763389622
5.651	6.62251407201	10047.36	31.496155076	9487.793	45.3011995841	10488.28	44.1449301122
5.652	6.10618548653	10032.71	50.9389935689	9454.102	35.6532388815	10482.42	54.5978798284
5.653	6.19348890688	9950.684	62.1943033732	9489.258	40.1759587676	10520.51	41.7812132107
5.654	6.1417819022	9972.656	54.1803776846	9543.457	54.4844068109	10507.32	28.736347572
5.655	6.27933591437	9965.332	46.6919434293	9515.625	28.4654707839	10524.9	45.9927649649
5.656	6.28732187479	10009.28	23.983270739	9499.512	39.6987746165	10524.9	40.3597235766
5.657	5.8574666825	10038.57	39.9673238173	9484.863	60.0290161022	10535.16	64.8416482748
5.658	6.16183611684	10045.9	26.3807485452	9517.09	31.1925720741	10511.72	43.6199027
5.659	6.15046146552	10015.14	34.7768593589	9533.203	32.0123856431	10453.12	40.7938932534
5.66	6.39566051656	10047.36	28.3271249654	9468.75	50.6717758085	10500.0	37.2949935183
5.661	5.94226341303	9960.938	39.9846126955	9495.117	34.768614083	10532.23	26.8786014688
5.662	6.31334568301	9996.094	44.065456973	9461.426	34.5016933381	10497.07	25.3382950592
5.663	6.08617409063	9977.051	39.4029027541	9477.539	45.826216955	10536.62	26.5285846701
5.664	6.00395678129	9977.051	32.061976472	9454.102	40.4030605013	10513.18	35.5096609177
5.665	6.10746419385	9987.305	39.2713510828	9505.371	31.7431063402	10482.42	38.3363559512
5.666	6.04716533564	9984.375	40.1199437125	9527.344	23.017927641	10458.98	27.592555669
5.667	5.83908360304	10034.18	52.6383640101	9508.301	35.3004568693	10495.61	42.8288803039
5.668	5.86648533096	9953.613	40.4040370053	9533.203	38.0959517367	10533.69	58.0527548445
5.669	5.74776002775	9977.051	30.0396093745	9547.852	37.1579396972	10521.97	44.1690623115
5.67	6.12188893613	10031.25	33.3506534605	9470.215	24.4000691343	10536.62	29.0700662824
5.671	6.11020060143	10026.86	45.3527278128	9512.695	40.87876141	10458.98	21.7950495809
5.672	5.44881408008	10009.28	47.14050288	9493.652	55.8387669833	10470.7	55.8224707304
5.673	5.79079124543	9965.332	67.7095865296	9530.273	44.306790229	10510.25	32.0922705122
5.674	5.75321441048	9987.305	30.2486399965	9486.328	41.0844376732	10521.97	32.4951766325
5.675	6.23625584913	9979.98	31.2896377887	9506.836	38.6596634162	10532.23	70.3429048459
5.676	5.67988541971	10029.79	30.689722965	9464.355	41.2822184003	10504.39	54.9411826934
5.677	5.82331788388	10021.0	40.344757798	9496.582	35.1243271039	10451.66	65.2569465572
5.678	6.1921739788	9981.445	39.3181524888	9480.469	49.2045203677	10453.12	40.3656112232
5.679	5.59640525612	9972.656	43.1548325818	9517.09	54.149552561	10489.75	27.8283679765
5.68	5.43008026037	9966.797	45.3088659979	9479.004	29.6679611149	10541.02	34.6854149873
5.681	5.84220588872	10009.28	29.7183604175	9520.02	43.8405312342	10480.96	53.2577366943
5.682	5.42977154454	10007.81	22.5592579847	9512.695	42.9851505193	10548.34	28.6519004606
5.683	5.89147318392	10042.97	31.6900832567	9484.863	33.3339978685	10535.16	30.8980968445
5.684	5.64964158646	9987.305	35.8684517229	9520.02	41.8264638465	10546.88	34.9134257269
5.685	5.65482788529	9969.727	41.0284983709	9476.074	48.1723079205	10483.89	33.7084169912
5.686	5.45971851731	10040.04	29.9716069689	9534.668	29.7409422423	10450.2	50.4047195139
5.687	5.40888552485	9984.375	33.7163258946	9458.496	36.1014270605	10451.66	37.2721198983
5.688	5.49179994284	10023.93	70.21929666	9540.527	30.4242824159	10549.8	22.7678108292
5.689	5.15963944119	10037.11	40.2888467094	9492.188	19.8302769598	10539.55	42.9539782288
5.69	5.65782301863	9956.543	41.5122634399	9544.922	23.6883414486	10536.62	34.4858407968
5.691	5.53802297207	9960.938	45.0900121212	9522.949	24.7028633031	10529.3	44.0854797158
5.692	5.48403678626	9960.938	47.5577165652	9514.16	19.4507354993	10470.7	32.3182205443
5.693	5.3068165252	10022.46	45.2515530171	9484.863	37.8221739763	10502.93	45.5251217393
5.694	5.5861667897	9952.148	29.9893471922	9517.09	36.630296157	10501.46	35.8225234244
5.695	5.601208081	10013.67	47.9896847747	9530.273	44.1779751664	10485.35	34.7473183005
5.696	5.48962509468	9996.094	43.2068555063	9549.316	44.8048772814	10508.79	27.9331304205
5.697	4.98702905991	9981.445	32.1367727085	9473.145	21.9073514716	10464.84	40.0457254371
5.698	5.35760571606	10038.57	29.0389373442	9479.004	55.2078096619	10486.82	41.3767154743
5.699	5.55668206	10045.9	22.2024805038	9527.344	32.2171195686	10464.84	32.2791286877
5.7	56.53829269	9999.023	144.137192387	9499.512	140.466133775	10511.72	394.037985318
5.701	5.20581864722	10001.95	36.5448358918	9515.625	40.4534705702	10539.55	21.8987296089
5.702	5.4430136541	10025.39	42.2146210895	9508.301	52.6780188943	10533.69	25.8748721652
5.703	5.32984914386	10025.39	34.7759928543	9455.566	47.7093605251	10473.63	39.1731746762
5.704	5.26028494914	10023.93	19.6329743368	9522.949	35.5233997861	10548.34	33.7768971675
5.705	5.14851862517	9950.684	41.3008661357	9461.426	38.629904795	10513.18	39.4017694162
5.706	5.44224285893	10031.25	44.4210589123	9467.285	20.2769238769	10507.32	39.2673194808
5.707	5.3310813849	10026.86	47.1430540274	9541.992	29.6013012552	10510.25	37.6341647441
5.708	5.37039720703	10003.42	31.4174421309	9528.809	46.5621460629	10460.45	66.0094749968
5.709	5.37107527051	9971.191	39.9266431898	9467.285	25.3654154303	10502.93	28.8767692979
5.71	5.2905819476	10047.36	35.2262445226	9544.922	37.672858996	10469.24	48.5644898623
5.711	5.14398423728	10037.11	44.3560652757	9481.934	26.8442245553	10486.82	31.3679247925
5.712	5.11619379728	10022.46	31.7272598813	9459.961	29.0584220245	10538.09	34.8273345189
5.713	5.1417225569	10045.9	35.9993546069	9493.652	27.5507836746	10476.56	49.8959493145
5.714	5.65137574599	9993.164	31.7429404611	9500.977	41.1263322307	10504.39	46.9911111689
5.715	5.42191020736	10012.21	23.9358485823	9517.09	57.5824327962	10510.25	53.3143934018
5.716	4.77867179573	10045.9	20.6623753554	9496.582	28.802233837	10467.77	54.7297327039
5.717	5.34011925517	9988.77	26.2353075273	9525.879	33.3978901127	10494.14	24.904225596
5.718	5.30849981779	10042.97	28.2533619074	9498.047	42.8830994518	10464.84	22.7584277784
5.719	5.07607436808	10026.86	26.4484871988	9530.273	26.5737569748	10505.86	45.5629498224
5.72	4.95556210716	10015.14	33.9817018366	9536.133	17.7600518934	10524.9	27.1767495242
5.721	4.98741221661	10035.64	32.6519778578	9495.117	29.5386142522	10451.66	30.9984887292
5.722	5.1389018234	9994.629	39.9871451836	9471.68	39.5258109293	10543.95	28.8400800741
5.723	5.26076442831	10009.28	32.8111519783	9502.441	25.8331148835	10520.51	35.736122116
5.724	4.87767278283	10040.04	33.4125407992	9479.004	26.8484585671	10451.66	24.076782796
5.725	4.98631497507	9958.008	31.2837537585	9452.637	24.5071774682	10478.03	34.0242329676
5.726	4.83610707029	9950.684	36.0395594838	9454.102	24.8040313949	10514.65	34.6029918143
5.727	4.83120891102	10034.18	29.143588857	9465.82	34.5243477859	10466.31	40.3799874095
5.728	4.83478792482	9993.164	30.4963083827	9518.555	30.7262492665	10467.77	39.3654520092
5.729	4.87930192028	10022.46	16.8254661875	9461.426	30.0179607532	10529.3	41.7994515721
5.73	4.81119801934	9963.867	32.4022238588	9454.102	37.4225840852	10453.12	22.1270731634
5.731	4.67123215865	10000.49	47.6895660572	9479.004	31.5974168007	10543.95	43.0313691045
5.732	4.96388691039	10001.95	40.995976742	9483.398	37.5098259488	10491.21	30.3894809787
5.733	4.74843826044	9975.586	30.278041593	9509.766	29.6574288216	10497.07	37.0632817013
5.734	4.83803253639	9959.473	25.9520802999	9455.566	32.5207797255	10486.82	24.9532753731
5.735	4.83774564574	9955.078	34.6892413602	9484.863	39.7565715216	10482.42	36.2957534307
5.736	4.75655690759	9997.559	27.8103974606	9511.23	37.9411407074	10473.63	27.7803489537
5.737	4.65236404543	10016.6	21.5975961866	9490.723	38.3615571181	10520.51	27.9709232953
5.738	4.63815207481	10025.39	21.9569435188	9489.258	52.4617021223	10535.16	18.7057928221
5.739	5.02920162516	9994.629	48.0900999406	9496.582	24.2940826017	10542.48	22.7063692105
5.74	5.01505689463	10034.18	29.1343176402	9522.949	29.8933116762	10483.89	25.6683644332
5.741	4.98121089333	10003.42	28.439265524	9503.906	29.6370519033	10479.49	32.371085393
5.742	4.96131952676	9966.797	36.347786246	9528.809	34.1802612531	10478.03	26.848483207
5.743	5.16149301481	9996.094	24.833829495	9471.68	36.9631719464	10488.28	30.0668588233
5.744	4.91691646764	10003.42	30.9392836854	9473.145	40.0222275869	10520.51	38.8948198087
5.745	5.53396574841	10031.25	51.6498130966	9480.469	26.8495734047	10482.42	25.8347681217
5.746	4.76710255595	9953.613	27.9304754246	9468.75	55.7439674701	10463.38	39.0808067581
5.747	5.18248085769	9969.727	41.4303914542	9531.738	34.1229915885	10520.51	33.0661166024
5.748	4.78063634467	10012.21	43.7863333361	9474.609	37.2048837854	10529.3	29.8940539485
5.749	5.25267317902	10018.07	19.4548502109	9527.344	31.1841159395	10469.24	16.5923843834
5.75	9.32847684361	10022.46	365.989461769	9517.09	43.7279173327	10505.86	28.6896155967
5.751	5.3759537239	10001.95	29.1394325959	9536.133	33.2742651905	10511.72	50.1221525349
5.752	4.93878773516	9968.262	31.9198194447	9483.398	35.9898629797	10529.3	41.4180134323
5.753	5.52256684509	10031.25	24.7616781905	9544.922	45.2946716026	10548.34	25.8783084726
5.754	5.84058279407	9952.148	33.6176331307	9502.441	35.1348537296	10526.37	26.7408666706
5.755	6.15774539595	9979.98	46.0601101404	9549.316	30.5849971997	10519.04	60.5225404849
5.756	5.88669505874	10021.0	56.7976281466	9498.047	36.1724613814	10527.83	46.9601804722
5.757	5.93426554566	9956.543	42.6958481911	9496.582	58.3659906898	10516.11	63.3710677543
5.758	5.77115397262	9985.84	28.7160076144	9490.723	45.6497130474	10539.55	40.2086823643
5.759	5.97984581176	9994.629	52.3105669252	9462.891	46.5783326498	10494.14	26.1278206052
5.76	6.32407733697	9963.867	28.3477801381	9498.047	57.4729194833	10480.96	44.8800452908
5.761	6.13827561874	10003.42	45.4606510669	9492.188	28.9310055349	10519.04	33.4295219123
5.762	5.91152646818	9966.797	57.9014677727	9464.355	53.5292654121	10532.23	37.9803152395
5.763	6.5994077328	9982.91	33.103549485	9471.68	57.9393888777	10451.66	52.1962413946
5.764	6.53487948602	9963.867	36.7470162434	9522.949	51.3240520099	10532.23	45.4185306848
5.765	6.63473499013	9978.516	43.4886069753	9511.23	35.7076385534	10485.35	49.6353711549
5.766	7.41180653772	9991.699	50.7954924797	9531.738	28.1964672466	10472.17	57.3269507565
5.767	6.71633697353	9985.84	38.3129298146	9521.484	58.2482274695	10516.11	33.3910148906
5.768	6.76157633654	9962.402	51.2195078281	9498.047	42.994017074	10482.42	50.3451636521
5.769	7.11268875669	9965.332	53.2314159022	9477.539	49.3786600027	10524.9	37.8314724963
5.77	6.99730831276	10038.57	50.6205431283	9452.637	54.9171929151	10502.93	48.5339766385
5.771	6.79487894908	9972.656	34.0206624075	9531.738	37.9950511909	10513.18	47.3343860128
5.772	6.59475458173	10028.32	47.5508158421	9495.117	60.9605201223	10453.12	59.4093286578
5.773	7.01952274943	10022.46	35.9343104452	9518.555	49.2866265581	10504.39	80.2107387605
5.774	6.54279516044	9953.613	30.5040955479	9477.539	54.5575678869	10548.34	30.9938480358
5.775	6.96932083797	10034.18	35.1634761847	9492.188	51.4851308969	10482.42	53.1486813724
5.776	7.23072038951	9968.262	50.7158169417	9512.695	47.992091915	10492.68	19.6284659697
5.777	6.84635579721	9984.375	49.3924733643	9471.68	57.7674302626	10530.76	52.2157213697
5.778	6.72015373852	10004.88	66.1995238349	9495.117	39.0089117731	10517.58	34.6149809096
5.779	7.93562178881	9991.699	38.1725188927	9536.133	47.3371254686	10526.37	63.5222324883
5.78	7.50543382473	9982.91	50.2463141477	9503.906	39.2351446455	10526.37	73.5649374109
5.781	7.29569072829	9985.84	35.5756043931	9461.426	49.9740556522	10461.91	40.5401905232
5.782	7.14784138905	9994.629	34.4711294027	9515.625	36.4880414831	10536.62	47.9547317598
5.783	6.40624541944	9962.402	39.9299991384	9537.598	39.353670922	10536.62	50.0858278948
5.784	7.42182181624	10041.5	35.7581563984	9495.117	34.4291343573	10523.44	35.3602892753
5.785	7.3729546452	9966.797	65.7042711619	9515.625	42.2771538352	10536.62	54.4710541603
5.786	6.42452226945	9958.008	42.1621406129	9508.301	47.800483856	10489.75	44.2303633272
5.787	7.40292928538	9984.375	47.7575776657	9528.809	37.4480309055	10538.09	45.9283889813
5.788	7.20552541555	10038.57	55.607393616	9465.82	37.2256389766	10542.48	41.7582169295
5.789	7.03619880415	9963.867	51.9648844187	9514.16	51.2474712759	10549.8	28.8304671672
5.79	7.20896038178	9999.023	42.7630344375	9530.273	37.457143954	10513.18	35.8122842908
5.791	7.24915526905	10023.93	40.0795842442	9457.031	34.0637289804	10457.52	63.885101815
5.792	7.93325348838	9988.77	62.7452434267	9451.172	37.3952875035	10476.56	80.3855072946
5.793	7.68973279434	10028.32	65.4107388305	9486.328	57.3123668922	10549.8	47.3755631746
5.794	7.99328056337	10040.04	37.6373010987	9540.527	34.2753041153	10508.79	57.936441693
5.795	8.26618018524	9958.008	39.0939399812	9502.441	40.5367927373	10453.12	34.4985924628
5.796	8.45000378396	10003.42	49.402239259	9454.102	69.0907777164	10520.51	53.2809224395
5.797	8.61876154911	10031.25	53.252642159	9454.102	37.4000731163	10511.72	46.1924994367
5.798	8.66582261633	10007.81	69.0140602034	9502.441	40.6222840361	10458.98	60.3665648263
5.799	8.67796240476	9993.164	73.030182588	9521.484	61.2143531626	10456.05	53.1170968529
5.8	9.34618943193	10021.0	42.8186869249	9458.496	36.239724564	10476.56	94.1853457504
5.801	9.74981797983	9955.078	63.4339871145	9495.117	26.5959087733	10456.05	53.0473492412
5.802	9.55414917998	9994.629	61.6510922596	9473.145	50.6265221254	10458.98	68.218213493
5.803	9.57459880487	9977.051	54.9785854758	9541.992	37.4410429095	10458.98	64.3808113982
5.804	10.0661068156	10021.0	51.4080366732	9471.68	44.4002722198	10542.48	70.2389726817
5.805	10.9372470828	10016.6	80.5097293008	9477.539	74.0408531199	10511.72	83.398262912
5.806	11.0616693344	9975.586	85.5982005462	9517.09	71.6887069155	10467.77	78.0527017236
5.807	10.9996432696	9996.094	103.887355106	9457.031	79.2013151124	10495.61	120.246460907
5.808	12.427432488	9985.84	58.503096361	9464.355	91.8138299418	10475.1	68.9698568805
5.809	12.44121266	10000.49	71.0483471638	9473.145	85.7979832249	10479.49	60.9499030068
5.81	12.2125184884	10023.93	72.7961257754	9531.738	42.8851785872	10527.83	69.5233902337
5.811	13.2149703699	9969.727	91.3768810877	9496.582	90.454999489	10494.14	91.3202949821
5.812	13.1895996083	9963.867	83.2059900514	9549.316	59.2233890184	10495.61	92.2284273488
5.813	13.5774776977	10013.67	66.9983908154	9518.555	97.9981640093	10486.82	86.3108672342
5.814	14.8409606285	10004.88	94.4211211546	9500.977	137.560847737	10545.41	72.2136482164
5.815	16.2145607336	10015.14	61.4930919185	9476.074	58.8917155759	10532.23	149.20062981
5.816	15.2691779979	10018.07	108.14232867	9484.863	106.529354839	10500.0	108.890032461
5.817	16.4011123325	10022.46	181.556444793	9508.301	88.5487698601	10542.48	79.1009366065
5.818	17.4565092454	10045.9	89.1148950648	9537.598	113.191540236	10491.21	142.754666141
5.819	16.335215774	10029.79	94.1077136136	9481.934	85.0494672656	10523.44	95.2243317428
5.82	18.6256360884	10035.64	161.897825864	9544.922	100.829650074	10491.21	111.459331091
5.821	18.1509011488	10028.32	155.109218341	9546.387	119.267183186	10472.17	99.9605673474
5.822	17.9041876095	10028.32	96.1426711308	9511.23	114.73634811	10513.18	123.158844901
5.823	17.3160204751	10021.0	102.126023807	9539.062	120.508519421	10500.0	189.714092651
5.824	17.3276910003	9978.516	128.268540477	9546.387	134.141118732	10464.84	95.0864383035
5.825	19.8937232029	10003.42	116.652766775	9540.527	119.316345027	10519.04	155.171800269
5.826	19.0588260247	9974.121	71.3446691448	9549.316	85.6516779033	10541.02	108.221793814
5.827	18.9797655719	9978.516	87.9929686789	9480.469	97.1745519873	10467.77	113.749141834
5.828	17.3499198755	9988.77	169.557077054	9531.738	202.669058639	10535.16	90.4305005121
5.829	18.8042801271	10029.79	100.908911563	9476.074	78.2749965809	10548.34	92.7060334973
5.83	19.0442293904	10003.42	122.672275995	9512.695	128.67059953	10488.28	174.443704589
5.831	18.4633233353	9960.938	92.4725541942	9503.906	134.399259825	10472.17	156.006024825
5.832	18.8547410118	9991.699	73.1470142692	9503.906	117.850699295	10460.45	171.481730614
5.833	17.9893051898	9981.445	136.499841343	9452.637	155.610092518	10530.76	107.479367219
5.834	18.6954177795	9968.262	76.069465373	9533.203	130.737983244	10461.91	118.789675806
5.835	18.6417112742	9987.305	103.381711728	9473.145	81.0039473944	10466.31	120.454860167
5.836	18.1538338371	10021.0	149.334078166	9506.836	99.8833936669	10473.63	109.435768684
5.837	19.5572410945	9988.77	122.5379385	9496.582	149.980889309	10456.05	154.163965209
5.838	17.6579573169	9987.305	158.072740304	9544.922	171.656177481	10450.2	147.033374556
5.839	18.6114174804	9997.559	115.69794679	9521.484	113.878142241	10530.76	104.40234381
5.84	18.6748318998	9979.98	125.365032281	9502.441	99.4890887353	10527.83	83.3851072751
5.841	19.5963098154	10007.81	162.760641054	9544.922	102.324482316	10470.7	127.53639919
5.842	20.6833215021	9952.148	102.769195686	9534.668	143.745046437	10470.7	141.466009667
5.843	18.7216258395	10028.32	87.3335535609	9511.23	153.156740016	10464.84	136.482422003
5.844	19.5852765593	9962.402	69.8691106701	9522.949	119.41509117	10453.12	151.869303411
5.845	19.1700920151	10034.18	158.501576409	9540.527	91.9450198189	10483.89	88.7905267961
5.846	19.5753954795	10003.42	126.677489941	9549.316	109.326471488	10473.63	152.696799321
5.847	20.3371268531	9982.91	126.346057358	9528.809	117.220368709	10532.23	134.576527896
5.848	20.6201674012	10015.14	101.789989735	9509.766	143.424751753	10500.0	78.1643490231
5.849	20.9696334228	10042.97	129.728077176	9505.371	134.008495083	10500.0	157.895306834
5.85	22.6494484401	9962.402	115.33095057	9455.566	102.955553978	10488.28	164.785094826
5.851	24.7858265285	10034.18	234.303380771	9452.637	109.810911989	10466.31	128.735491499
5.852	24.0802408451	10015.14	154.254979051	9495.117	158.86755861	10461.91	129.889238614
5.853	24.666528954	9987.305	140.435767237	9461.426	157.344892762	10472.17	137.903632077
5.854	24.474855133	10019.53	167.087394959	9493.652	143.581031103	10532.23	240.834151119
5.855	26.829975053	9955.078	150.517840933	9540.527	175.839920232	10495.61	149.420506527
5.856	25.0899011358	9988.77	112.216684443	9470.215	179.110552493	10521.97	151.837058079
5.857	25.4352288717	9991.699	243.349059104	9527.344	228.093982363	10532.23	250.948213482
5.858	27.4768794548	10031.25	235.308185908	9479.004	162.683624515	10483.89	135.168044737
5.859	26.5836868415	9971.191	254.127607636	9451.172	152.04943205	10541.02	193.080635913
5.86	28.4092509086	10023.93	175.562455508	9511.23	196.74422928	10516.11	205.119205913
5.861	27.749354624	10045.9	128.649554338	9486.328	308.884652522	10520.51	184.934195543
5.862	29.864201418	9956.543	131.208998403	9495.117	179.229211541	10479.49	147.185820633
5.863	30.3200295271	10006.35	235.268922483	9457.031	178.457007928	10494.14	110.542214156
5.864	31.2346400177	10026.86	271.906388763	9471.68	236.946103133	10541.02	213.836360949
5.865	31.7165438809	9963.867	287.737395047	9528.809	155.322015602	10470.7	344.034708115
5.866	33.6696091131	9984.375	202.802024269	9537.598	174.107984581	10530.76	296.196140965
5.867	35.1426748277	9953.613	222.393446897	9499.512	214.755640171	10483.89	147.128037637
5.868	38.5525533688	9975.586	195.8041674	9544.922	132.616568716	10489.75	300.831318219
5.869	39.1121089228	9987.305	486.143564038	9536.133	311.117884281	10546.88	296.736127535
5.87	41.2261135222	10031.25	236.770883751	9496.582	312.4951222	10517.58	289.602397183
5.871	43.0926642169	10042.97	240.301927287	9506.836	311.44701371	10549.8	238.442620883
5.872	44.4188834668	10025.39	330.216331301	9474.609	310.201077321	10516.11	310.644553602
5.873	46.7597689612	9958.008	246.289913176	9518.555	222.453496134	10533.69	305.788959522
5.874	51.2508796908	10040.04	336.173492483	9511.23	200.7279031	10533.69	296.223509708
5.875	46.7817670645	10000.49	218.471115147	9505.371	302.970292867	10527.83	252.503055499
5.876	51.0252494136	9966.797	329.457662569	9454.102	330.395322482	10489.75	329.245771012
5.877	50.0096816584	9981.445	337.21952156	9524.414	254.137383649	10456.05	345.815636938
5.878	56.322985835	10037.11	390.287860099	9455.566	268.602977532	10491.21	429.063544944
5.879	60.8777914258	10040.04	502.304087255	9522.949	522.237917916	10454.59	332.871562213
5.88	62.7087923313	9963.867	362.847713118	9492.188	728.017395405	10467.77	344.061071523
5.881	59.5957195565	9997.559	399.255423026	9499.512	535.207072815	10467.77	375.228131042
5.882	64.2175493612	10004.88	548.522047619	9467.285	558.811045246	10529.3	445.579082074
5.883	74.2972149615	9993.164	350.482557698	9546.387	378.353155175	10469.24	483.859664873
5.884	76.5693386269	9953.613	603.127015446	9525.879	361.634579279	10495.61	524.687164873
5.885	88.5760301614	10006.35	325.668519403	9477.539	364.122591188	10489.75	545.326249387
5.886	87.0421707773	9978.516	607.155316911	9509.766	598.648163334	10469.24	462.052353927
5.887	90.6069685353	10018.07	656.397832085	9479.004	527.043166879	10478.03	583.997695334
5.888	102.70230264	9953.613	610.477083718	9541.992	561.463645917	10541.02	550.536277429
5.889	98.8697107387	9966.797	533.90531619	9549.316	456.538082606	10488.28	548.719779263
5.89	102.058033827	9952.148	1038.95453928	9464.355	634.455398156	10546.88	747.927013635
5.891	101.65478564	10037.11	735.944372698	9476.074	486.991863455	10453.12	972.321649054
5.892	118.458277391	10000.49	656.121144342	9461.426	820.002759124	10532.23	1034.52676722
5.893	99.2405453924	9994.629	1003.47608799	9484.863	488.876063436	10541.02	652.131589683
5.894	105.190074404	9958.008	1277.27297826	9533.203	781.016526509	10502.93	474.947069669
5.895	109.025775618	10045.9	868.704181509	9525.879	395.229814635	10488.28	464.311113657
5.896	112.285580879	9978.516	757.46925658	9486.328	594.112107425	10473.63	819.916128197
5.897	117.881024424	10041.5	570.860762272	9505.371	287.30839408	10524.9	556.317824389
5.898	98.5806516585	10028.32	835.753738692	9481.934	660.240691159	10479.49	649.010431709
5.899	97.9535342139	10013.67	679.302840564	9461.426	699.473519091	10542.48	642.637359225
5.9	97.2417611953	9950.684	665.253973089	9454.102	589.436144547	10486.82	471.972135901
5.901	88.3896514001	10041.5	602.06916917	9520.02	650.348931395	10520.51	520.51057137
5.902	87.2836206667	10010.74	439.391836515	9467.285	658.43532381	10483.89	761.510612731
5.903	82.8638021649	9953.613	528.404542338	9464.355	692.479853659	10469.24	672.031089942
5.904	85.8072080951	10031.25	561.918641645	9503.906	674.686151894	10507.32	570.390161479
5.905	82.4349021614	9950.684	527.228939425	9457.031	546.266531861	10502.93	446.18248223
5.906	76.4615644609	9987.305	357.386613564	9492.188	643.886969999	10539.55	638.774893748
5.907	71.3449964064	9975.586	647.443208956	9474.609	372.944773821	10541.02	534.851012069
5.908	70.2744444438	10042.97	515.773244019	9493.652	553.692240298	10546.88	426.291304926
5.909	66.7670218812	10021.0	466.040042273	9509.766	526.838085138	10478.03	357.563668828
5.91	66.6218713881	9969.727	533.650597194	9455.566	552.058826223	10517.58	556.974523122
5.911	69.9393248112	10028.32	393.541515941	9459.961	393.809194954	10507.32	493.87391992
5.912	58.5400364693	9953.613	366.065670477	9462.891	486.794093897	10480.96	419.399239838
5.913	65.1757335278	10015.14	276.301283882	9489.258	426.942772215	10489.75	347.275031139
5.914	59.2928459104	9956.543	199.724748156	9520.02	387.026729533	10478.03	320.433645147
5.915	53.8826707259	9991.699	273.381359238	9533.203	334.049636547	10520.51	410.272539077
5.916	49.907627485	10009.28	238.789805893	9517.09	525.050665509	10458.98	202.663413468
5.917	52.2370796852	10040.04	209.361260577	9499.512	273.760576251	10469.24	259.415336705
5.918	53.3201809555	10016.6	526.887599673	9500.977	243.525698103	10541.02	477.048048433
5.919	44.730864942	9974.121	419.602611577	9533.203	281.922987794	10542.48	256.440308825
5.92	48.7678315916	10023.93	252.205832281	9458.496	246.725123929	10513.18	249.114072509
5.921	44.8599860733	10044.43	281.204739636	9498.047	422.130773956	10479.49	239.299547748
5.922	42.976379828	10018.07	252.732940489	9531.738	328.106207212	10492.68	369.903147561
5.923	42.9900650323	10040.04	182.968706548	9518.555	312.672452051	10549.8	137.537089434
5.924	38.9673886256	10029.79	304.433488468	9506.836	236.122572483	10508.79	384.167204834
5.925	40.5195552937	10042.97	196.336717716	9528.809	176.180194363	10501.46	167.343174795
5.926	36.236545906	10040.04	173.62223912	9506.836	266.789053458	10486.82	363.15953647
5.927	36.9880520584	9978.516	303.956952064	9461.426	226.755008666	10516.11	296.653509597
5.928	38.6123084852	9979.98	293.815735338	9467.285	270.656101263	10533.69	247.731779766
5.929	36.3036458103	9971.191	205.788900787	9492.188	169.004175957	10488.28	182.5171379
5.93	35.0458236063	10032.71	174.337593353	9470.215	146.712542355	10501.46	206.589790473
5.931	35.1035573723	9978.516	230.645905767	9506.836	282.204588036	10504.39	206.412029663
5.932	33.1878018448	9956.543	188.303321751	9464.355	129.693998834	10498.54	203.432846676
5.933	34.2629750447	9963.867	331.391943909	9471.68	181.282466321	10539.55	233.795983296
5.934	33.3486859235	9988.77	244.385555413	9459.961	152.650470227	10527.83	222.273418271
5.935	33.5234727435	9955.078	162.841441193	9534.668	149.042377619	10479.49	143.391656903
5.936	33.7861369153	9959.473	164.115514424	9498.047	242.283852736	10521.97	168.835042267
5.937	34.1335760167	9974.121	178.850022794	9493.652	263.142176679	10467.77	193.896352135
5.938	30.5935213725	10026.86	254.815351165	9511.23	143.757962251	10529.3	255.827992081
5.939	33.351686838	9956.543	170.816256209	9546.387	157.260344618	10460.45	233.930348646
5.94	31.4634229686	10015.14	221.446423792	9476.074	238.238563947	10527.83	161.413927693
5.941	32.7233538996	10035.64	172.502455739	9470.215	274.928989503	10532.23	137.932824098
5.942	32.4788468867	9974.121	228.340158111	9500.977	368.723238657	10467.77	187.995527866
5.943	33.7978219764	10037.11	181.115217245	9474.609	139.691596942	10542.48	234.578758896
5.944	35.9772157867	9953.613	363.08116456	9541.992	180.095237016	10514.65	173.844094846
5.945	39.7008344074	9978.516	233.358080302	9480.469	142.509812173	10491.21	233.071065964
5.946	39.5970075978	9966.797	272.400879261	9467.285	222.023715654	10516.11	288.334796769
5.947	40.2854535595	9997.559	382.766174543	9455.566	284.219842797	10529.3	188.848591074
5.948	42.7783836848	9956.543	240.687385375	9496.582	396.130803221	10460.45	185.477950043
5.949	45.8438510395	9999.023	453.186480418	9520.02	222.889608118	10475.1	257.698611933
5.95	42.2535967493	9994.629	263.844483094	9489.258	367.39872337	10520.51	311.752818106
5.951	49.3485619177	10034.18	145.69438677	9537.598	261.518847207	10451.66	273.0933014
5.952	51.2866393387	9988.77	314.355277041	9461.426	210.803357861	10498.54	257.700092937
5.953	52.7335476645	9978.516	260.632987126	9465.82	264.256985696	10470.7	322.628743128
5.954	54.1364043768	10012.21	377.465365506	9465.82	331.794062106	10480.96	268.559137552
5.955	55.2340034751	9962.402	403.948092447	9534.668	422.55776327	10530.76	306.434569214
5.956	56.5495320825	10006.35	332.438008666	9511.23	238.187637961	10543.95	281.18312229
5.957	64.6973613919	9966.797	288.68820038	9461.426	274.692821132	10492.68	393.051748971
5.958	66.2600426837	9955.078	473.152256479	9486.328	309.373429822	10478.03	288.663537167
5.959	54.9758424385	10021.0	419.321405151	9484.863	353.263810342	10456.05	354.764954736
5.96	56.522815243	10015.14	554.057093492	9544.922	289.507856144	10546.88	369.748188404
5.961	61.2023213344	9997.559	281.706180624	9493.652	345.88390495	10541.02	382.348228536
5.962	60.3637308244	10047.36	584.514471613	9537.598	496.67886083	10523.44	317.571300015
5.963	58.0389012952	9979.98	224.244937614	9534.668	417.680167787	10543.95	338.217708479
5.964	56.0276988397	10037.11	209.383790266	9492.188	291.991494267	10457.52	296.459107544
5.965	59.7170979368	10025.39	567.291042093	9479.004	533.873315743	10505.86	359.029011994
5.966	53.4311116379	9953.613	370.349776329	9531.738	317.777004144	10524.9	410.025257675
5.967	52.4066636703	10040.04	292.876191076	9522.949	298.556483854	10463.38	260.145646968
5.968	57.5313402615	10015.14	325.807089582	9486.328	458.064243893	10467.77	299.124016406
5.969	48.5964844649	10028.32	219.92794212	9493.652	270.950847122	10546.88	295.510538001
5.97	45.7524066087	10044.43	302.584454137	9540.527	309.846491063	10536.62	279.223024382
5.971	45.1581293137	9952.148	386.512039004	9496.582	183.020045896	10536.62	253.407545655
5.972	41.8784816706	10034.18	214.368915395	9536.133	522.983685752	10520.51	239.599346934
5.973	43.3337447009	10006.35	456.283187146	9541.992	381.002069962	10545.41	313.776796862
5.974	39.4674158047	9965.332	281.457626592	9537.598	200.686659353	10472.17	231.125241027
5.975	36.2713748665	10022.46	231.681487981	9547.852	270.867626364	10524.9	282.542506937
5.976	36.4874140292	10021.0	214.620216241	9508.301	202.197287541	10494.14	171.569279396
5.977	32.3315600963	10010.74	149.401248519	9471.68	259.016543243	10538.09	306.020597687
5.978	30.853529925	9962.402	142.294264431	9452.637	196.805821391	10548.34	179.688554826
5.979	28.7197994454	9955.078	138.93023188	9489.258	162.374833465	10524.9	209.879124935
5.98	26.600692302	10040.04	270.817456841	9490.723	177.55468899	10500.0	120.721720281
5.981	27.3483846905	9958.008	213.511261533	9459.961	113.679661893	10535.16	175.774799889
5.982	23.8350547132	9960.938	99.1842789581	9546.387	130.106039156	10466.31	175.760905922
5.983	26.4638863471	9999.023	150.20887572	9524.414	147.317116297	10491.21	200.381686555
5.984	23.9103440347	10019.53	151.61687177	9468.75	102.593696978	10507.32	105.33702168
5.985	21.7430046037	10021.0	153.135026823	9544.922	142.728842808	10461.91	102.456160995
5.986	19.5791840375	9999.023	270.199108583	9474.609	96.2158205033	10480.96	126.372249419
5.987	20.2976044021	10038.57	158.122102554	9486.328	212.388359282	10530.76	242.414149927
5.988	19.7689208782	10009.28	168.982091544	9459.961	113.413457348	10501.46	114.430585441
5.989	17.5424761743	9968.262	111.095943541	9525.879	68.5968131046	10524.9	174.546833674
5.99	18.5244458101	10034.18	144.214012572	9506.836	121.239949597	10463.38	156.255004991
5.991	16.5985951429	10045.9	131.296490525	9530.273	126.351729837	10523.44	119.611217803
5.992	16.280034775	9952.148	106.738999455	9506.836	135.734905134	10498.54	75.965502492
5.993	16.1727741941	10009.28	57.7224941975	9479.004	101.311202302	10464.84	141.747966773
5.994	16.775595489	10048.83	64.7443667055	9471.68	99.9215351872	10529.3	161.504313231
5.995	16.2129089786	10021.0	90.4831459762	9506.836	87.8049558	10463.38	93.0509292738
5.996	16.8393680881	10003.42	79.9564698871	9481.934	82.1824047309	10501.46	91.3658977009
5.997	16.8666606157	9952.148	58.5226265948	9503.906	95.092096054	10497.07	50.1002090365
5.998	15.0897545412	9968.262	97.6695531489	9492.188	103.202683353	10497.07	84.10579155
5.999	22.6990568762	10012.21	141.062839127	9520.02	106.314225436	10476.56	119.118138406
6.0	13570.0543191	10001.95	27576.2783378	9520.02	35335.5493241	10530.76	35130.245268
6.001	21.5412716179	9966.797	99.2111406235	9525.879	131.549531315	10475.1	84.4016541933
6.002	12.6230687387	10003.42	74.3000300201	9467.285	57.8836059538	10485.35	105.477308796
6.003	13.0796536415	9997.559	70.529255277	9541.992	74.9575830426	10461.91	82.7179738217
6.004	12.4020539806	9982.91	138.559107079	9484.863	131.398642132	10513.18	75.4110195692
6.005	11.3805886918	10038.57	84.7330461362	9496.582	62.6770418937	10473.63	75.6448693179
6.006	12.8903254574	9990.234	96.4883377908	9461.426	75.4894542711	10456.05	91.1737937554
6.007	11.2974531552	10022.46	66.1491400562	9470.215	82.7007498834	10451.66	80.1288921713
6.008	10.9632669541	10041.5	64.4966282275	9451.172	59.8387400442	10464.84	75.0759415369
6.009	11.1239742194	9979.98	118.099746029	9541.992	32.0067824016	10475.1	86.3249772182
6.01	11.8547883413	10044.43	94.0824244953	9496.582	61.8407340963	10454.59	91.2545928322
6.011	11.7034427704	9965.332	81.1218413582	9506.836	75.4770418344	10498.54	82.7606678754
6.012	11.9107242677	10048.83	52.3334085437	9495.117	106.825088046	10479.49	86.5305862025
6.013	12.0749173232	10035.64	64.7085794271	9484.863	61.7288336476	10539.55	72.7949553929
6.014	12.5767430297	9953.613	52.1431282138	9549.316	46.9425756396	10536.62	81.6284120074
6.015	11.6997172092	9987.305	80.7858418462	9496.582	90.7847556903	10480.96	54.0290475184
6.016	12.7423693926	10009.28	113.903003517	9547.852	88.2303372706	10450.2	134.974648977
6.017	13.0015002254	10022.46	106.373088691	9515.625	131.713829073	10461.91	71.3628655786
6.018	12.726658079	9985.84	87.8381744999	9464.355	76.79782657	10492.68	71.1061171942
6.019	13.7036128474	10029.79	96.8082840957	9500.977	140.14070346	10530.76	59.3553406573
6.02	15.4961884395	10032.71	123.526512404	9484.863	111.103450051	10476.56	147.799820068
6.021	16.3924838197	10000.49	98.2436610628	9512.695	108.903970183	10469.24	83.0351059955
6.022	20.1681440035	9971.191	132.582921751	9479.004	104.406670687	10482.42	149.258455459
6.023	22.4710006062	9978.516	189.405839735	9492.188	142.027112442	10539.55	152.875136772
6.024	27.7199838529	10031.25	157.424711479	9549.316	89.0710192531	10461.91	143.901500754
6.025	30.9292663755	9962.402	141.811198797	9506.836	201.380393003	10469.24	232.539612038
6.026	36.7295505724	10001.95	146.503773649	9534.668	207.216854161	10541.02	219.620604675
6.027	37.102074802	9994.629	244.055733603	9547.852	279.271709658	10460.45	163.942698509
6.028	31.3883030256	9987.305	253.68240288	9493.652	224.928084643	10460.45	322.389933683
6.029	29.7776952105	10041.5	192.181805054	9480.469	199.02193217	10527.83	147.218154096
6.03	23.3265464199	10032.71	112.091003688	9495.117	151.346699081	10456.05	88.1860751399
6.031	21.8312882988	9958.008	168.877354969	9471.68	91.4387088355	10500.0	171.24788401
6.032	19.9582187283	9990.234	143.038719937	9514.16	126.337677083	10510.25	114.618613051
6.033	18.6202853464	10001.95	146.830423559	9520.02	127.686083689	10489.75	192.566288587
6.034	16.3774611536	10003.42	137.893371124	9540.527	114.243036757	10466.31	179.811695889
6.035	16.3411239245	10028.32	121.640779545	9509.766	100.133291837	10530.76	113.32360964
6.036	15.3215093826	9960.938	106.713882764	9454.102	117.674632178	10530.76	70.985072434
6.037	14.8085734644	10038.57	93.0450277022	9459.961	107.621272961	10454.59	97.2729942701
6.038	15.3793958036	10041.5	79.9086977351	9508.301	103.443819007	10507.32	106.949557275
6.039	13.8474662424	10035.64	59.7683184949	9524.414	126.198391935	10521.97	97.1967551015
6.04	13.8402110914	10013.67	63.3950105134	9487.793	82.0767916789	10463.38	57.0063541996
6.041	14.1390877053	9965.332	66.5483103213	9536.133	87.2563503159	10483.89	89.5654824126
6.042	12.6541163017	9975.586	102.985847565	9479.004	57.9645297386	10521.97	120.674157226
6.043	11.0339055412	10041.5	72.6586604082	9473.145	57.2450523285	10497.07	84.4929302672
6.044	10.8905909199	10040.04	72.9527204008	9498.047	67.1270174597	10501.46	52.543931453
6.045	9.63580784041	9972.656	79.0638606896	9477.539	59.0564724955	10476.56	73.7989551295
6.046	9.02013853186	10025.39	47.9513624833	9457.031	56.9044296563	10535.16	80.5936863565
6.047	7.46236246433	10016.6	47.7517228006	9520.02	63.7742807983	10520.51	55.088974033
6.048	7.22742468136	9974.121	74.1786497192	9495.117	35.2839779473	10456.05	38.5602760608
6.049	7.28259921689	9965.332	90.1789721768	9549.316	48.6245116171	10501.46	45.9619414535
6.05	7.36451284446	9990.234	24.1991726246	9458.496	56.1021747746	10480.96	58.2565167136
6.051	7.50393492189	9984.375	45.1310064278	9527.344	55.4947979421	10549.8	38.9750615895
6.052	8.23519529446	9952.148	56.6826036142	9499.512	54.0630256838	10492.68	56.4562261907
6.053	8.5556549198	9978.516	50.0075706652	9505.371	62.6479646591	10498.54	78.9515804917
6.054	8.48476524674	10023.93	50.4722212046	9495.117	44.0382242354	10508.79	125.770809211
6.055	8.09469768832	10016.6	56.5190676384	9530.273	51.5928952159	10502.93	48.1927921085
6.056	8.31711138133	9985.84	60.9137660435	9544.922	50.6686463641	10545.41	47.7433021157
6.057	7.76153407843	9997.559	59.5879042562	9520.02	41.2857009203	10527.83	38.4974589295
6.058	7.49491392061	10028.32	36.0530155461	9486.328	56.5121194445	10510.25	35.6977152652
6.059	7.52944751814	9974.121	67.4094296057	9508.301	38.8846829102	10461.91	46.4269970564
6.06	6.69926127655	10035.64	39.3531797004	9534.668	31.9492204138	10498.54	33.662693743
6.061	6.35403097683	10003.42	33.6855091504	9534.668	46.9185242136	10491.21	35.8273315003
6.062	6.01060583404	10016.6	59.4218048202	9530.273	51.0376803273	10461.91	48.0740748544
6.063	5.57131960396	9988.77	26.9124108738	9476.074	28.2133708746	10539.55	48.0678872929
6.064	5.41643016254	9987.305	38.7041615781	9451.172	45.9212993969	10463.38	33.6623215449
6.065	5.11743817236	10012.21	20.9757347087	9495.117	21.2038859553	10453.12	28.453002441
6.066	5.07693959822	9965.332	52.2590967829	9458.496	30.7650859451	10456.05	47.7860855992
6.067	4.44335435684	10034.18	78.3582759497	9543.457	23.2746476185	10538.09	34.7227008267
6.068	4.04855954942	10037.11	14.5586498787	9531.738	43.6659437098	10476.56	43.2207883359
6.069	4.65966619224	9981.445	23.4564641831	9458.496	35.8330642729	10535.16	32.0035981611
6.07	4.1451524309	9985.84	18.6242507098	9484.863	17.8418021971	10535.16	20.824306867
6.071	4.07942809549	10034.18	30.0579615044	9539.062	17.4493469825	10476.56	22.7197844756
6.072	3.76150448533	10013.67	15.0562566374	9544.922	30.0169820479	10524.9	24.2815002792
6.073	3.86638387641	9968.262	25.940187684	9464.355	23.0024437797	10485.35	20.4658642889
6.074	3.74230478987	9971.191	21.4334142278	9508.301	18.1656363827	10456.05	16.88452642
6.075	3.32884049489	10001.95	27.6821407842	9479.004	32.2587706089	10461.91	28.0967642374
6.076	3.32396724624	10035.64	17.9773412564	9528.809	17.15961644	10463.38	27.576783053
6.077	3.40356589897	10009.28	26.0580443669	9520.02	17.4231737717	10480.96	16.5370351935
6.078	3.18452544411	9956.543	25.0634041373	9505.371	16.0322298387	10497.07	15.4421026904
6.079	3.27851531849	9958.008	15.2127994666	9473.145	24.0662611529	10519.04	30.5225564484
6.08	2.9531286055	9968.262	24.7708231606	9474.609	21.6288558327	10466.31	13.7701728839
6.081	2.99445052026	9962.402	17.3289965445	9515.625	12.7750680702	10541.02	11.7933480003
6.082	2.77715795332	10001.95	11.1997288584	9496.582	18.54506772	10527.83	13.5646276612
6.083	2.70481758358	9952.148	21.4620306355	9484.863	13.3615238906	10539.55	19.123845869
6.084	2.38468530996	10007.81	22.6875797531	9464.355	14.8642808187	10489.75	13.834098711
6.085	2.51074334111	9991.699	15.6527137569	9518.555	9.47263056955	10541.02	16.7513616708
6.086	2.51663548905	10013.67	17.9817378556	9473.145	19.266298589	10521.97	21.436515866
6.087	2.22858666567	10004.88	13.4287365984	9547.852	14.5152934177	10505.86	15.2827179396
6.088	2.38042627856	9984.375	16.2104779463	9525.879	12.1320814539	10451.66	9.42828319554
6.089	2.30437433608	9955.078	15.1024017627	9527.344	16.6710801215	10456.05	15.1741376611
6.09	2.34039668531	10009.28	9.83798346016	9480.469	14.6772746196	10542.48	25.0660144082
6.091	2.40203797705	9988.77	15.1366148401	9465.82	7.68183680805	10543.95	24.506733649
6.092	2.14009309364	10019.53	10.6359313171	9521.484	15.3247386631	10478.03	9.82487238259
6.093	2.15408572644	9959.473	11.297708089	9537.598	10.7155031796	10527.83	13.1398436523
6.094	2.09135272158	9968.262	13.8623295669	9505.371	13.91361781	10501.46	11.9337813479
6.095	2.08838097975	10031.25	14.8977585078	9511.23	12.1698269258	10541.02	20.3605993308
6.096	2.12720279731	10004.88	10.2815040125	9527.344	14.5708236196	10480.96	11.1471678073
6.097	1.99629969794	10016.6	20.9383282654	9528.809	11.1997084424	10539.55	12.1265152409
6.098	2.12229582851	9977.051	12.6444571987	9462.891	11.4147780651	10520.51	11.6143556854
6.099	2.11262507539	9985.84	15.3235209807	9462.891	11.3274874589	10521.97	14.4012522555
6.1	2.02117837448	10047.36	19.0795021732	9540.527	12.1432930644	10472.17	10.6169836127
6.101	1.9945438485	9979.98	9.41977986584	9468.75	8.19915641483	10530.76	14.4764997368
6.102	2.01653457673	10041.5	11.3664672451	9490.723	20.813982894	10513.18	17.2077595788
6.103	1.98166598377	9977.051	11.2788655196	9473.145	9.71748003487	10463.38	14.203959482
6.104	2.06996761135	9968.262	10.6557297517	9464.355	16.9225506516	10507.32	8.60986567857
6.105	2.1651688628	10013.67	17.1417776172	9505.371	9.71250365815	10453.12	11.5436330752
6.106	1.94236266946	9985.84	14.5449547553	9477.539	11.4437105095	10478.03	13.0806797616
6.107	2.09822006678	9993.164	22.2110612613	9492.188	8.15987255358	10529.3	24.3688713814
6.108	2.1575617454	10013.67	11.1025561684	9531.738	9.09562373175	10502.93	11.7754173141
6.109	1.94466300179	10029.79	7.94298293207	9471.68	10.6030145527	10533.69	13.464636688
6.11	2.14245265078	9982.91	9.86225503284	9514.16	9.99818893281	10536.62	19.4476261378
6.111	2.11810530982	9975.586	9.57020614274	9525.879	13.047868339	10458.98	12.225030155
6.112	2.16762012521	9979.98	8.03455951646	9496.582	15.4089801701	10529.3	13.3792339789
6.113	2.11473783982	10031.25	10.1794633488	9480.469	16.1087063653	10505.86	9.19798072948
6.114	2.14379948425	10034.18	8.60834049617	9479.004	17.6983718347	10536.62	8.90465528828
6.115	2.07093407806	9979.98	14.4222249771	9474.609	14.4103667398	10472.17	9.92008138119
6.116	2.2095225789	10018.07	20.904142899	9461.426	11.1328206597	10511.72	13.5895802771
6.117	2.11278402964	10022.46	17.2738962817	9500.977	15.7621288663	10504.39	17.3018234696
6.118	2.12250493319	9984.375	11.7087847992	9464.355	24.2018057775	10542.48	11.593257087
6.119	2.00060836047	9974.121	14.0595038763	9471.68	13.2135689827	10469.24	11.5271212675
6.12	2.23563776769	9999.023	13.9660577811	9530.273	10.4035723956	10461.91	13.7833026029
6.121	2.14564616605	10047.36	16.0387068684	9451.172	15.6689911754	10457.52	14.1481344413
6.122	2.21016473049	9952.148	14.7308913124	9487.793	11.7898997804	10513.18	9.47127387959
6.123	2.25007403635	10035.64	13.3784303052	9470.215	15.620449177	10545.41	14.7014737915
6.124	2.15744940818	10015.14	21.7991371338	9480.469	19.6035419488	10486.82	10.2255309637
6.125	2.90710570336	9999.023	20.2945098012	9481.934	15.8070014411	10505.86	15.387983599
6.126	2.21458145365	9955.078	16.0454367088	9518.555	14.6448448187	10475.1	14.7156142255
6.127	2.33981400863	9960.938	18.4669522436	9483.398	12.7262251538	10472.17	14.3932058543
6.128	2.49516431052	10038.57	16.0531837232	9473.145	13.8980838195	10514.65	22.819380393
6.129	2.36516312998	10037.11	19.271519177	9483.398	10.113192789	10523.44	11.2021679633
6.13	2.49884439336	9966.797	11.9138622882	9509.766	10.594303099	10524.9	37.0049247279
6.131	2.44279867625	10035.64	17.5506883444	9454.102	11.4758905435	10454.59	15.2163804687
6.132	2.39509752536	9978.516	15.4045268579	9502.441	16.3224536714	10464.84	19.6803615219
6.133	2.34723106937	9997.559	21.4942278706	9499.512	11.9634789253	10501.46	15.6898516504
6.134	2.36057110709	10007.81	19.5307937669	9474.609	13.1511350615	10505.86	29.4371187334
6.135	2.63214244018	10047.36	17.9067120748	9479.004	14.9668160152	10480.96	11.4632454478
6.136	2.56945766624	9968.262	14.7924034339	9471.68	12.6523174607	10488.28	20.9677237713
6.137	2.44298388817	10037.11	23.816648332	9528.809	17.4154223119	10460.45	18.6544350197
6.138	2.45209098059	9978.516	10.3199056456	9486.328	15.4547656531	10541.02	19.7585839522
6.139	2.33656400519	9955.078	9.83204194493	9512.695	9.6703761411	10535.16	14.005363165
6.14	2.45189234929	10021.0	24.5990819577	9544.922	14.8563532391	10516.11	27.6895271558
6.141	2.42852833786	9988.77	17.223811677	9541.992	22.2594940364	10541.02	10.2630342925
6.142	2.64925750797	9993.164	21.0012460435	9451.172	14.7881892014	10480.96	22.5037509939
6.143	2.45741679015	10045.9	10.1822920052	9490.723	20.2676241777	10543.95	22.5480775017
6.144	2.6466504646	9991.699	18.1995793205	9459.961	29.4310330674	10491.21	17.454415743
6.145	2.50644761225	10042.97	11.8344646764	9452.637	26.7182799523	10514.65	19.7239291504
6.146	2.84185411087	10029.79	10.1598668588	9474.609	13.4130576238	10502.93	14.0149738027
6.147	2.5873627997	9969.727	14.1077873253	9486.328	15.4231946367	10473.63	15.7990560136
6.148	2.74078292946	10031.25	18.6180309395	9502.441	18.9929885039	10533.69	21.937826326
6.149	2.9346073907	10023.93	17.4864508186	9517.09	17.024308999	10463.38	21.3908328494
6.15	4.80474805157	10029.79	19.1789028394	9508.301	34.1392192377	10536.62	19.0337175829
6.151	2.94556489155	9953.613	14.4213214941	9470.215	17.8637564084	10461.91	21.0202977025
6.152	2.75990215208	10048.83	14.5327408721	9528.809	16.3979409661	10486.82	26.3864180749
6.153	2.87463520376	9955.078	11.2253403889	9461.426	11.7165879773	10507.32	19.2772100282
6.154	2.98861452287	9990.234	14.6289084041	9528.809	19.6896463454	10456.05	24.5310775903
6.155	3.00742349627	10013.67	30.3440397001	9537.598	18.1004891909	10539.55	19.3927277102
6.156	2.89431837747	9969.727	15.5488985251	9471.68	17.0784977381	10533.69	20.872726918
6.157	2.98609679639	9969.727	14.7860602285	9543.457	13.7806207997	10511.72	34.306039327
6.158	3.05160998067	10006.35	17.5486266575	9468.75	20.6533745076	10475.1	13.7504238938
6.159	2.86164990099	10019.53	22.8965973274	9528.809	20.3952603178	10542.48	18.7635482338
6.16	3.07463319888	10048.83	8.46002223756	9536.133	24.7163599235	10491.21	12.9278103362
6.161	3.17601256361	10004.88	12.8269287005	9547.852	24.077985507	10538.09	12.5384252894
6.162	2.96905775294	10028.32	30.0075089826	9471.68	21.7209514644	10527.83	29.1276029508
6.163	3.00030480933	9953.613	21.8501324033	9495.117	30.0791545997	10523.44	20.5380341766
6.164	3.13211736324	10019.53	19.0360404333	9546.387	17.6404496469	10491.21	21.6278429427
6.165	3.18606434196	9958.008	15.5808841623	9484.863	18.6452594259	10492.68	25.8146412817
6.166	3.37391047742	10042.97	24.2510142037	9534.668	33.002087317	10514.65	19.2325815745
6.167	3.16250231497	10021.0	22.1612391027	9514.16	15.2021182573	10495.61	15.4956484262
6.168	3.50665273626	10006.35	29.9457262483	9468.75	20.837486945	10491.21	17.1489755384
6.169	3.44870878671	10022.46	19.0168701789	9533.203	23.7573717646	10497.07	20.5196722039
6.17	3.78863693935	9977.051	25.656844093	9546.387	22.1850571044	10453.12	25.3689722454
6.171	3.53177407073	9965.332	34.6788169841	9499.512	27.6355512793	10489.75	14.9267557587
6.172	3.26795941279	9963.867	21.6871818553	9539.062	15.2454135016	10488.28	28.4795411503
6.173	3.65680181019	9984.375	24.7457344203	9462.891	26.1691784693	10456.05	22.0930306663
6.174	3.63446993066	9982.91	17.9998860541	9549.316	25.123915239	10456.05	19.0731709849
6.175	3.68376694206	9977.051	20.6186301346	9452.637	15.3229574707	10491.21	17.7423882366
6.176	3.55450478666	10004.88	12.3347805986	9528.809	25.4325546514	10478.03	32.0443291772
6.177	3.52513522851	9963.867	31.1221314396	9470.215	18.4076052556	10483.89	20.1951754322
6.178	3.38188332029	10013.67	16.4361676281	9547.852	18.6706634592	10533.69	30.5468286735
6.179	3.68838166477	9993.164	17.87883726	9461.426	17.9480682132	10458.98	28.6507776893
6.18	3.85066043795	9993.164	25.3466931397	9521.484	21.7015545854	10514.65	16.0023534268
6.181	3.59033732808	9978.516	27.9541602992	9465.82	16.0651919357	10504.39	39.7543044232
6.182	3.72935955693	10022.46	29.1960578423	9512.695	16.7908283922	10491.21	26.9767436569
6.183	3.75085577037	10007.81	23.7347218311	9511.23	28.6902182826	10476.56	13.1662643104
6.184	3.89791325988	10044.43	23.2312190022	9531.738	29.2073522058	10473.63	18.5050701722
6.185	3.81084493894	10040.04	28.4553795313	9500.977	32.0786679521	10494.14	48.950723163
6.186	3.84282747662	10037.11	20.5348879813	9454.102	22.7148559556	10530.76	20.0387646622
6.187	3.978046372	9997.559	16.8761431678	9549.316	13.968241158	10476.56	25.6957271298
6.188	3.97245704919	9959.473	26.4686781444	9514.16	19.9505009912	10457.52	22.8517398103
6.189	4.31027105299	10018.07	23.6884132263	9464.355	35.3671179778	10492.68	27.1632834018
6.19	4.34563370635	10035.64	29.7621990314	9503.906	22.397750862	10513.18	31.6671300056
6.191	4.18474975852	9993.164	13.0530684262	9534.668	24.7188085358	10478.03	22.1521025778
6.192	4.20241006634	9994.629	38.3817519215	9541.992	17.5478721785	10467.77	27.628049716
6.193	4.64235924278	9962.402	20.2419051547	9522.949	22.391427461	10467.77	42.5330644314
6.194	4.27935635605	9962.402	49.0134575094	9546.387	23.7365581888	10523.44	40.4704390465
6.195	4.60563541236	10015.14	43.8821459112	9465.82	19.4623952778	10517.58	19.7782856514
6.196	4.53731734617	10022.46	20.8219302269	9454.102	22.279966059	10530.76	37.8072509594
6.197	4.85482911245	9999.023	33.555182086	9498.047	20.1553601273	10494.14	23.9744791587
6.198	4.55782792264	10047.36	37.1082783569	9547.852	33.3991874307	10451.66	46.4610563907
6.199	4.56921358463	10045.9	26.9135622079	9452.637	29.0792578526	10495.61	25.7285255416
6.2	5.34863185675	10044.43	26.0735572388	9539.062	19.0517680689	10457.52	36.8182828304
6.201	5.22992221813	9955.078	29.7696130466	9471.68	42.7665526171	10494.14	30.5303357062
6.202	5.02925400316	10009.28	24.6179494222	9457.031	24.967178424	10483.89	35.3830875751
6.203	5.74698430092	10044.43	38.6667776334	9524.414	39.6618972779	10535.16	35.7679781854
6.204	5.29560117014	9972.656	20.5591355142	9498.047	27.4499968188	10513.18	41.631302314
6.205	6.04176556527	9952.148	23.3005749181	9451.172	32.5593666393	10521.97	25.9911784056
6.206	5.83638784615	9985.84	37.2496037999	9537.598	28.9742937935	10546.88	27.789068625
6.207	5.20609040815	9981.445	30.5360404574	9533.203	31.8182638794	10502.93	48.161847771
6.208	5.99401714957	10010.74	26.7232197666	9543.457	24.4722976097	10472.17	31.0153611802
6.209	5.68098262076	9950.684	27.8102879835	9476.074	57.4111576946	10491.21	31.7370981871
6.21	5.57710139768	10006.35	37.8535891564	9541.992	51.8454489416	10451.66	47.4970156453
6.211	5.88227101619	9972.656	49.4945167389	9546.387	36.0416168387	10526.37	22.9178251682
6.212	6.13044040281	9985.84	56.4800901672	9544.922	22.7747511249	10497.07	34.757015812
6.213	6.14564000992	9979.98	31.5726579834	9536.133	47.9861227655	10549.8	20.0026940063
6.214	6.3782334106	10021.0	45.2086742433	9474.609	50.3661903172	10498.54	48.491015242
6.215	6.40034754973	9999.023	29.5195514558	9489.258	46.8597242007	10510.25	43.4758397074
6.216	6.06387941512	10019.53	37.807786604	9544.922	49.6238913229	10498.54	27.8539505624
6.217	6.6342304021	10037.11	48.0888339209	9506.836	42.8771080199	10536.62	61.7368663518
6.218	6.40804931567	10035.64	42.8334327403	9477.539	45.7048850621	10520.51	51.5835899623
6.219	6.62244568333	10003.42	42.9648027376	9483.398	42.5876613232	10483.89	42.8972826168
6.22	7.10890766739	10018.07	38.6869554765	9541.992	39.0933208777	10479.49	59.7596285375
6.221	7.68873706712	10025.39	43.5512584539	9505.371	20.8026109831	10500.0	54.4614437095
6.222	8.1135562757	9979.98	78.1750305318	9502.441	70.816482583	10479.49	38.90660366
6.223	7.47437153225	9990.234	34.9220192415	9512.695	46.7510634565	10529.3	31.9538433811
6.224	7.34972571165	10016.6	40.5805324364	9500.977	45.6915108475	10489.75	48.5741407942
6.225	7.49487558354	10018.07	40.22312425	9470.215	37.5182985747	10500.0	44.4081595853
6.226	7.90836627568	10013.67	83.1240005249	9490.723	68.4126106272	10494.14	50.5971598094
6.227	8.05885093696	9956.543	42.9498605407	9500.977	39.2574675941	10479.49	49.6104001285
6.228	8.22312804962	9999.023	54.0453266968	9527.344	46.6979301716	10507.32	47.7719605968
6.229	8.85149442982	10015.14	49.164953433	9536.133	39.7697511227	10539.55	66.5190723366
6.23	8.31311136158	10038.57	53.0431804625	9522.949	55.4406269149	10526.37	38.8326152926
6.231	9.27026113902	10010.74	78.3275856048	9534.668	46.4178838638	10539.55	35.8506045959
6.232	8.57078191134	9969.727	53.815607447	9524.414	53.1656462835	10453.12	50.0489660079
6.233	9.20052342569	9993.164	56.7319346621	9499.512	68.2514200083	10519.04	42.1138584788
6.234	8.59701888487	10038.57	73.4640973053	9512.695	64.3784487048	10491.21	103.522316343
6.235	9.49540330902	9978.516	45.9217570122	9546.387	40.5974457522	10517.58	60.4045939564
6.236	9.11761003344	9975.586	68.1423227888	9473.145	68.2561637015	10511.72	63.9988989207
6.237	9.22813413821	9993.164	74.3203285524	9477.539	37.1743942003	10485.35	84.889256404
6.238	10.1902776527	10026.86	91.6912072159	9544.922	73.5043410623	10542.48	56.2234562597
6.239	9.76649394525	9968.262	73.4859189783	9540.527	70.9199999658	10533.69	74.5704425858
6.24	10.2851291697	10044.43	58.3268414732	9520.02	70.65547773	10548.34	101.01546334
6.241	9.92347864632	10048.83	48.5979880882	9452.637	39.5994469424	10485.35	56.6239837119
6.242	10.2049216706	10009.28	63.8939587998	9467.285	62.3306875073	10532.23	59.6744692664
6.243	10.6706113568	10029.79	102.063410892	9486.328	57.0923788418	10467.77	69.8756702525
6.244	11.2061987313	10007.81	52.3387508408	9468.75	83.5082944064	10463.38	57.9272151447
6.245	10.8473064709	10035.64	92.6552162261	9498.047	43.5989699838	10546.88	65.0342825466
6.246	10.8839315868	9974.121	93.3254568522	9520.02	67.3926736367	10535.16	64.7901962419
6.247	11.5838444196	10040.04	65.1782881813	9515.625	63.4786991315	10520.51	81.7987037406
6.248	11.4627425187	10016.6	51.5757190913	9496.582	99.2996932862	10524.9	49.9000280309
6.249	12.0818283845	10038.57	62.8686119952	9549.316	43.6295602298	10500.0	67.0844481071
6.25	50.3014255695	9956.543	255.634636754	9537.598	146.986278183	10505.86	158.833293074
6.251	12.0977473534	9958.008	118.163611334	9467.285	103.519252413	10513.18	111.582601212
6.252	12.3620746196	9963.867	68.110374706	9490.723	106.897953727	10535.16	67.2036425855
6.253	13.5276045848	10029.79	87.2302718397	9527.344	95.3257926363	10520.51	83.393695806
6.254	12.9171793996	10025.39	115.841122233	9533.203	45.0252091684	10545.41	77.2443636001
6.255	13.5606176964	10034.18	70.8812276047	9479.004	114.204259395	10548.34	92.0078881681
6.256	15.1085979272	9953.613	107.08585343	9506.836	67.5462118228	10461.91	94.7010140441
6.257	13.2036724592	10026.86	66.415244275	9505.371	118.839303508	10491.21	55.5775865398
6.258	15.9710058877	10000.49	66.6071242393	9454.102	75.1519751454	10464.84	72.5852978967
6.259	15.0904792204	9962.402	109.66831133	9546.387	100.946486471	10549.8	63.2030335644
6.26	16.2082366	10023.93	81.9515834616	9479.004	129.562766845	10491.21	124.377232679
6.261	16.4222358802	9993.164	174.608751143	9536.133	72.6580571766	10475.1	58.1650971672
6.262	16.1959520179	9950.684	98.6671670105	9464.355	95.6778888901	10460.45	90.4750796598
6.263	15.627319179	9955.078	83.7010280238	9461.426	142.341474412	10510.25	85.5609575081
6.264	17.1004858099	9972.656	115.120035039	9509.766	125.654229129	10536.62	74.6099223736
6.265	16.9916477823	10042.97	65.1512224461	9461.426	92.8123541474	10502.93	107.529173235
6.266	18.9704208504	10025.39	109.560461607	9452.637	154.693432853	10454.59	78.3283021546
6.267	18.1448372212	9993.164	72.1752488754	9476.074	115.712747591	10456.05	89.9943290914
6.268	19.766843468	10004.88	154.52771054	9470.215	104.715474394	10473.63	94.7502493152
6.269	18.3453564616	9984.375	154.797045486	9528.809	153.073090126	10456.05	143.688831124
6.27	19.7005855083	10029.79	97.5209536948	9496.582	195.465239478	10523.44	230.839352376
6.271	21.5649255044	9952.148	96.4510245842	9505.371	198.032797555	10502.93	115.183610123
6.272	21.1582248793	9969.727	131.672297764	9455.566	149.170861903	10450.2	135.476685785
6.273	22.3309594431	9968.262	97.8661354575	9479.004	150.663239929	10502.93	140.044303822
6.274	21.3450320926	10022.46	168.459138784	9520.02	140.513968936	10505.86	204.699622445
6.275	22.7637217187	10021.0	88.8612255177	9528.809	98.6766423828	10545.41	77.4758907475
6.276	23.1455940061	9968.262	157.308633303	9489.258	218.073724938	10511.72	137.803299921
6.277	23.4913406497	10025.39	144.122147099	9451.172	109.597647738	10450.2	171.972934464
6.278	23.7910486896	10048.83	101.047135022	9537.598	155.773719599	10451.66	127.116278816
6.279	24.1356472412	10009.28	177.714524651	9487.793	129.762515238	10519.04	188.90712429
6.28	25.6963577444	9969.727	108.075809614	9503.906	234.452792311	10548.34	172.752953352
6.281	26.1103693608	9987.305	243.467492131	9522.949	138.063704489	10486.82	121.333131458
6.282	25.6966840464	10012.21	136.902218004	9465.82	190.678230275	10463.38	183.545086097
6.283	26.8625336538	9985.84	224.759779198	9498.047	172.81079821	10476.56	106.39902798
6.284	28.05768212	9993.164	195.876949958	9509.766	125.1496512	10456.05	182.927421054
6.285	29.2078264778	9953.613	195.945746499	9508.301	145.453023669	10533.69	142.543143649
6.286	27.5946652168	9950.684	217.856170188	9465.82	163.466720831	10485.35	153.374008396
6.287	27.6531670161	10047.36	179.898677243	9467.285	254.849217465	10500.0	162.01418693
6.288	28.9470407825	10029.79	179.083159898	9527.344	126.969387367	10501.46	146.804631194
6.289	29.7005449527	10045.9	158.19002606	9546.387	125.407024972	10454.59	117.902707719
6.29	29.7363152273	9984.375	185.746683636	9539.062	270.446133471	10466.31	115.535636101
6.291	31.2305904074	9984.375	274.777190701	9549.316	126.173387099	10519.04	155.994642435
6.292	31.5897353034	10003.42	209.849546273	9454.102	219.011254217	10548.34	220.949658791
6.293	31.9819285146	9977.051	298.892288739	9512.695	115.772366413	10494.14	287.602115001
6.294	34.2938403617	10018.07	198.121271777	9479.004	194.020422138	10460.45	200.088513873
6.295	31.9173126997	10015.14	202.834823495	9512.695	275.934828305	10516.11	274.872242926
6.296	33.1550853534	10029.79	186.495123467	9496.582	172.508310414	10460.45	372.915817595
6.297	31.0519252127	10026.86	139.137402459	9499.512	250.820500256	10502.93	215.833258599
6.298	35.5463065301	10018.07	186.406318055	9512.695	181.839482274	10513.18	280.301711657
6.299	33.53400916	9971.191	255.103426766	9530.273	192.736009818	10486.82	205.009319608
6.3	565.989388813	9974.121	25888.5358743	9515.625	1034.16212017	10489.75	1092.39749148
6.301	33.4979320326	10023.93	269.630304323	9500.977	204.471743587	10504.39	255.331587642
6.302	33.0477958508	10010.74	197.60852969	9534.668	221.279146129	10492.68	250.427450281
6.303	34.4950515397	9988.77	182.54336265	9539.062	220.840401254	10467.77	178.665762897
6.304	34.6475016608	10042.97	175.606477492	9467.285	281.855867175	10478.03	274.728195563
6.305	33.8072785649	9985.84	228.784044867	9546.387	314.290148658	10514.65	331.697069744
6.306	33.5103040883	10023.93	190.966107885	9451.172	303.608433222	10545.41	169.53989963
6.307	33.5212402677	10044.43	259.865223142	9522.949	199.741109026	10479.49	263.608942358
6.308	33.8746341547	9988.77	246.487344705	9454.102	218.579202397	10450.2	273.222796334
6.309	35.3231495693	9950.684	220.258776271	9484.863	213.352964797	10541.02	198.237880296
6.31	33.8996694998	9997.559	212.115672361	9514.16	187.708902963	10513.18	210.2393906
6.311	33.8631190124	9991.699	215.273825578	9549.316	135.929012834	10492.68	153.713275171
6.312	33.3948241971	9988.77	274.716521242	9508.301	321.674890743	10475.1	381.021551243
6.313	32.7854439218	9988.77	220.566560373	9500.977	184.244430572	10478.03	107.650387719
6.314	32.3032958981	10010.74	237.255702325	9468.75	157.323938009	10548.34	385.324526153
6.315	31.2458680354	9999.023	176.784544949	9493.652	245.417945925	10467.77	245.918674507
6.316	31.4207735816	10032.71	199.651738621	9495.117	183.528353782	10473.63	216.008700795
6.317	30.6581320539	10007.81	179.701645364	9536.133	203.538857636	10497.07	375.052527609
6.318	28.1151170281	10022.46	147.062930656	9521.484	129.929873022	10501.46	148.342023173
6.319	27.984813869	10023.93	102.987861483	9489.258	244.205792126	10479.49	208.365950309
6.32	24.8444711825	10015.14	122.532981198	9473.145	119.767974345	10524.9	227.171808294
6.321	26.7761599479	9968.262	273.70433076	9515.625	120.27084874	10524.9	130.029670909
6.322	24.9120251307	10016.6	137.748691227	9512.695	210.263747887	10514.65	131.099858942
6.323	24.5333204079	9965.332	112.950654497	9484.863	256.127507491	10523.44	201.389400665
6.324	24.3848988246	9996.094	192.292641158	9514.16	147.767272308	10541.02	199.655811273
6.325	24.9583176922	9994.629	304.023642592	9479.004	144.845884787	10504.39	105.072746901
6.326	24.7913111819	10018.07	189.414088351	9498.047	122.292952137	10495.61	100.932483914
6.327	21.3744330835	9956.543	103.703470345	9525.879	106.6995761	10475.1	117.275782302
6.328	21.213848079	10045.9	172.135075641	9452.637	198.325176736	10505.86	159.014103033
6.329	21.0625508559	10003.42	107.238352978	9493.652	119.854219563	10466.31	107.990934989
6.33	22.0513863865	10025.39	138.231520214	9543.457	160.546817863	10491.21	188.739331468
6.331	20.8679225399	9994.629	124.34960101	9503.906	94.206245367	10463.38	101.861948917
6.332	21.118268093	10018.07	112.086403369	9499.512	168.95298341	10476.56	174.002012349
6.333	22.1569889071	10019.53	79.3274849441	9503.906	187.806680113	10463.38	71.8238801546
6.334	19.6866800836	9962.402	126.442352986	9522.949	178.09924564	10539.55	144.98699683
6.335	18.6978393401	10006.35	173.492534221	9530.273	132.766828787	10479.49	144.70438239
6.336	19.3191758732	9953.613	136.190281631	9471.68	151.921374166	10488.28	144.739002618
6.337	17.6779538762	10019.53	102.448696665	9489.258	125.825673454	10524.9	146.668195731
6.338	18.4623700376	9969.727	123.549191886	9517.09	151.551389879	10460.45	129.271901105
6.339	17.4755935416	9985.84	82.4735925334	9541.992	88.9894570881	10485.35	83.0926960806
6.34	19.4726629314	9953.613	87.8586879688	9492.188	140.339648529	10510.25	125.814221651
6.341	17.5372694299	9974.121	112.950959813	9481.934	118.390281916	10450.2	91.7273649618
6.342	16.5394672194	10018.07	144.374420564	9473.145	80.9226427965	10517.58	157.923051764
6.343	17.9496914047	10004.88	132.02519046	9483.398	137.515782019	10491.21	96.051771647
6.344	15.9941274461	10012.21	93.2800722537	9541.992	66.1361448914	10505.86	117.331245495
6.345	17.2865594675	9979.98	87.2102210626	9492.188	100.634627058	10473.63	118.630808612
6.346	17.0137588796	9955.078	123.992129709	9505.371	165.904281227	10541.02	141.672939744
6.347	16.0706151522	10006.35	91.0889147087	9467.285	94.9648835676	10543.95	141.74550996
6.348	15.888781188	9997.559	128.61971244	9512.695	73.9917101137	10451.66	103.37323698
6.349	18.6696622453	10015.14	70.4425956175	9539.062	118.567611427	10483.89	148.664963497
6.35	17.9254881239	10048.83	61.0555076256	9461.426	114.960563597	10488.28	128.626687281
6.351	18.469098458	9962.402	107.097065718	9518.555	109.466256287	10473.63	119.522820438
6.352	16.6920925531	10037.11	110.193752664	9527.344	110.65451835	10514.65	136.718627567
6.353	17.7473067297	9993.164	81.351977865	9524.414	139.573688684	10508.79	103.136264483
6.354	17.8147029776	9985.84	89.8146682478	9496.582	131.235029856	10532.23	119.182510137
6.355	19.6258625475	9950.684	102.585135201	9544.922	115.864102683	10457.52	89.8652767562
6.356	18.1310475043	10044.43	135.352775146	9500.977	116.552561601	10511.72	94.7261049288
6.357	19.2697940226	9982.91	167.498085042	9474.609	159.755202305	10478.03	126.995073785
6.358	18.8177543022	10047.36	160.524321878	9462.891	126.551903124	10504.39	111.296345011
6.359	19.7143487968	9981.445	87.682122977	9541.992	137.757083382	10450.2	120.946729344
6.36	21.1612266281	10026.86	126.001947277	9536.133	117.481932042	10467.77	144.798681752
6.361	20.1928397356	9982.91	127.651271907	9537.598	165.111058617	10501.46	152.378965117
6.362	22.9322021026	10021.0	159.707096485	9468.75	98.635465291	10475.1	134.192454764
6.363	26.3125410113	9985.84	95.3299122675	9505.371	172.633397953	10450.2	195.470633265
6.364	25.4463815281	9963.867	266.590993483	9464.355	186.500540921	10489.75	104.743546344
6.365	25.7280900548	9978.516	177.865184296	9547.852	214.753474886	10543.95	260.661512878
6.366	26.5753195242	10040.04	129.12497737	9461.426	110.573150641	10524.9	236.489283587
6.367	26.3455706182	10004.88	134.468631881	9540.527	125.6405836	10466.31	168.087186891
6.368	24.0490611971	9960.938	156.665226542	9543.457	72.3828083935	10495.61	148.465063485
6.369	23.2980052014	10047.36	263.538725193	9512.695	196.708112641	10453.12	150.092969423
6.37	21.7417860733	10042.97	122.785085229	9480.469	173.476160158	10524.9	83.804016149
6.371	22.0919493988	10004.88	155.39809637	9509.766	183.172061345	10530.76	98.1575017091
6.372	23.7894357157	9996.094	144.920185808	9481.934	141.791062586	10476.56	141.35859892
6.373	21.594856837	9996.094	106.242483952	9503.906	117.56338237	10485.35	70.4703456085
6.374	19.7040887576	9979.98	171.056585385	9533.203	129.122549219	10539.55	135.575110472
6.375	867.80610628	9978.516	4822.93633374	9544.922	1154.21769774	10521.97	1292.75123261
6.376	20.9723387339	10029.79	98.9811355139	9493.652	74.9960842366	10533.69	146.378993873
6.377	20.5517338234	9956.543	105.370333578	9509.766	121.318793359	10549.8	122.26776481
6.378	18.8870139543	9966.797	164.030615647	9521.484	124.984074615	10529.3	147.234295405
6.379	19.7898545182	9999.023	121.178647098	9547.852	204.278200372	10494.14	235.829431405
6.38	20.5162526853	10004.88	123.238316178	9505.371	133.971090039	10521.97	130.392167458
6.381	22.4827264098	10023.93	219.368604633	9492.188	85.3472570064	10533.69	153.527164291
6.382	20.6447640729	9956.543	94.0829774395	9477.539	139.252523243	10527.83	102.336313488
6.383	19.9257243851	9962.402	79.5777823832	9503.906	162.87592206	10492.68	143.645323072
6.384	20.7439975162	9966.797	110.091660192	9490.723	159.681390755	10508.79	143.2285294
6.385	19.592337829	9953.613	100.660822444	9536.133	132.282364872	10497.07	133.50609824
6.386	20.8579175619	9962.402	173.932559031	9454.102	153.69592974	10514.65	216.655574973
6.387	20.1116331985	9977.051	146.613933081	9451.172	127.297819451	10516.11	140.628409059
6.388	21.7541775237	10022.46	173.191636527	9467.285	152.236753451	10541.02	171.768184677
6.389	21.9623398598	10031.25	121.442969111	9452.637	186.935696674	10543.95	106.310343878
6.39	21.4468845152	9958.008	105.878672511	9530.273	138.475051387	10485.35	151.864185501
6.391	20.6253666813	10019.53	225.611646231	9457.031	134.851631697	10488.28	131.134957139
6.392	22.1695947365	10041.5	131.405213435	9533.203	101.414489202	10501.46	187.284602245
6.393	21.4120487399	9960.938	179.330638474	9452.637	108.251392446	10536.62	147.981264961
6.394	20.1019555093	9985.84	253.730867052	9522.949	134.383357778	10486.82	211.809718648
6.395	22.7172457157	9974.121	153.784269629	9549.316	92.9961703283	10451.66	154.104355866
6.396	22.654582423	9993.164	203.812247241	9514.16	204.677518486	10521.97	163.284468014
6.397	23.6474627407	9990.234	165.88904991	9490.723	160.798712973	10548.34	373.07016435
6.398	24.6210327518	9962.402	136.253985764	9473.145	114.801624605	10527.83	140.169132008
6.399	24.4791807559	10040.04	117.738686651	9492.188	127.818297175	10513.18	138.002989505
6.4	23.1214981136	9956.543	110.031963172	9492.188	243.389865485	10548.34	160.289631428
6.401	22.0180340433	9953.613	226.259913375	9496.582	263.645155106	10478.03	108.487968889
6.402	22.1452709473	10023.93	135.422004678	9490.723	154.267271597	10460.45	134.213034614
6.403	25.880428132	10035.64	174.42758041	9464.355	94.7023812755	10485.35	234.550191151
6.404	22.9567565386	10021.0	199.074522162	9498.047	181.675965549	10464.84	131.117161114
6.405	21.7965328814	9953.613	121.379562955	9473.145	185.7983403	10486.82	219.376906806
6.406	21.4843396482	10034.18	218.198232727	9483.398	153.483385914	10464.84	186.991043407
6.407	23.4941660183	9966.797	132.411967611	9496.582	245.068752655	10523.44	215.143294322
6.408	25.7696229074	9952.148	149.44884271	9470.215	222.566769644	10460.45	139.174943166
6.409	22.8846444462	9990.234	119.939042125	9525.879	194.461393282	10457.52	116.767832766
6.41	27.691813893	10038.57	85.8144898069	9508.301	154.545478221	10469.24	243.921205193
6.411	25.0569767682	9984.375	188.073539045	9508.301	197.413270605	10464.84	190.858063399
6.412	24.2959228664	9972.656	170.340802676	9502.441	140.65682926	10486.82	136.821106577
6.413	24.417264242	10045.9	154.982897737	9479.004	148.080661709	10464.84	149.100879281
6.414	23.3173014865	10038.57	141.323825041	9483.398	130.967914261	10470.7	150.051967902
6.415	25.264732186	9994.629	202.112771923	9473.145	89.2656331164	10532.23	248.698413614
6.416	26.0025698518	10032.71	103.598992292	9455.566	142.676139434	10542.48	204.252505227
6.417	24.7403734744	9953.613	228.699805339	9537.598	248.951997569	10530.76	279.269097417
6.418	26.0957999638	9993.164	208.057302822	9492.188	171.462854448	10523.44	176.234545404
6.419	27.1236090427	10022.46	212.084370712	9530.273	166.688720196	10523.44	311.617732532
6.42	24.5977706728	10007.81	151.935962563	9525.879	147.224894749	10489.75	143.092208304
6.421	26.3172365899	10028.32	203.962350104	9500.977	137.040586825	10485.35	181.207600118
6.422	27.0456292452	10035.64	131.245684189	9520.02	310.799711729	10460.45	147.562904107
6.423	25.9322511675	9977.051	122.33231459	9473.145	259.04821928	10482.42	177.376898075
6.424	26.1281394546	10018.07	160.519965944	9487.793	164.273898742	10494.14	158.32302802
6.425	26.0972022136	9977.051	175.954639675	9506.836	191.97515263	10538.09	272.126339721
6.426	26.3816834429	9972.656	169.649503931	9506.836	159.152502588	10460.45	152.006272107
6.427	25.4364194292	9990.234	92.630081934	9499.512	146.064190654	10480.96	124.907041757
6.428	27.9092602061	10015.14	253.572574624	9515.625	178.604646539	10530.76	175.833678724
6.429	27.3965523104	9990.234	140.662497342	9514.16	236.840969876	10539.55	249.156305684
6.43	30.3274618137	10048.83	146.183970399	9522.949	125.379122192	10513.18	221.58811729
6.431	28.5085288905	10035.64	220.113959845	9511.23	134.935353977	10501.46	162.83345794
6.432	28.4614098807	10038.57	172.093662194	9502.441	191.600999728	10532.23	206.350356272
6.433	30.4523775218	10044.43	195.999261362	9533.203	151.386146749	10545.41	160.280781704
6.434	29.4878748226	10035.64	238.021184871	9459.961	287.045036785	10467.77	265.630336658
6.435	29.1595260978	9979.98	256.40377629	9509.766	169.276101173	10497.07	178.478078763
6.436	29.2082042673	10015.14	146.397384632	9503.906	259.399274834	10541.02	251.396288775
6.437	27.5659518578	10009.28	276.709618845	9458.496	216.823042742	10539.55	248.729723259
6.438	32.5969015034	10006.35	321.972843459	9546.387	205.481538698	10545.41	169.713765973
6.439	29.9402701789	10032.71	161.356546519	9547.852	268.049791659	10466.31	265.624924109
6.44	30.547665069	9981.445	452.941787056	9517.09	204.123546243	10488.28	158.537914955
6.441	32.1381053585	10000.49	310.375163086	9481.934	182.939396328	10549.8	162.995350929
6.442	32.9580593808	10001.95	203.741909177	9468.75	227.731372155	10495.61	120.366527536
6.443	33.3190304467	10047.36	269.840304263	9492.188	208.305643295	10542.48	159.754620188
6.444	34.0718266237	10041.5	206.579416627	9533.203	181.326570533	10463.38	150.876275841
6.445	35.0451901568	9975.586	289.534261329	9462.891	233.457365876	10538.09	229.851717378
6.446	36.2644837446	10047.36	223.932635539	9509.766	186.308946432	10539.55	296.570639843
6.447	33.8319909013	9956.543	182.390876496	9540.527	234.616387285	10502.93	220.740570349
6.448	34.2533572195	10028.32	305.241378231	9480.469	199.210727836	10480.96	240.347357264
6.449	34.3240239766	10023.93	228.528273386	9520.02	182.558803713	10504.39	270.817293842
6.45	34.1375919235	9988.77	226.797583019	9500.977	156.264156347	10463.38	269.465292673
