

# 
# Scan parameters: power 16.000000 dBm, bandwidth 1.500000 Hz
# Frequency [MHz]	avg noise	std noise	peak value
3850.000000	10.084269	11.711980	564.706748
3851.000000	9.248725	8.887364	384.612423
3852.000000	9.032260	9.368487	174.543584
3853.000000	9.305232	8.116499	553.727617
3854.000000	8.901396	9.723653	595.939411
3855.000000	8.652995	7.497544	468.988506
3856.000000	8.803529	10.490948	686.823820
3857.000000	8.645152	8.297507	391.940686
3858.000000	8.446314	9.813981	425.062679
3859.000000	10.174627	10.144321	487.591852
3860.000000	8.474635	7.989543	277.310977
3861.000000	9.567346	9.434919	374.487008
3862.000000	9.890942	8.283692	401.891682
3863.000000	7.927316	7.424483	294.861053
3864.000000	9.242167	9.095214	614.698902
3865.000000	8.440208	8.446868	332.284409
3866.000000	8.096919	7.680006	395.234781
3867.000000	9.247395	9.096608	439.597618
3868.000000	8.754329	9.380580	282.499553
3869.000000	7.486901	7.084916	305.417373
3870.000000	7.492097	7.407503	349.671746
3871.000000	9.192898	8.356772	174.825237
3872.000000	9.165707	8.964738	328.140585
3873.000000	7.905755	7.337890	394.259912
3874.000000	9.208165	9.064845	155.349204
3875.000000	8.068861	8.232909	281.903879
3876.000000	10.845189	11.214298	202.865243
3877.000000	8.492827	8.410990	191.416945
3878.000000	8.783297	8.900995	243.809760
3879.000000	9.247178	9.346819	204.289933
3880.000000	9.492634	8.828937	66.572019
3881.000000	9.514033	11.236418	167.242318
3882.000000	10.839495	10.617106	91.931125
3883.000000	9.696296	9.409585	215.568031
3884.000000	9.180640	9.315647	264.136790
3885.000000	8.513083	8.664716	63.745636
3886.000000	9.236444	8.764441	108.427264
3887.000000	10.366460	9.593185	193.942604
3888.000000	9.888606	10.673221	63.043157
3889.000000	9.418929	10.375585	95.857800
3890.000000	9.742772	10.061650	106.595965
3891.000000	8.852264	8.692423	57.648861
3892.000000	10.817885	11.287304	139.384085
3893.000000	10.184442	9.071991	96.415334
3894.000000	10.694261	11.411064	151.563817
3895.000000	11.046960	10.612786	99.579552
3896.000000	9.844135	9.091126	44.379128
3897.000000	9.369215	8.919429	53.167345
3898.000000	8.743017	8.946782	147.366731
3899.000000	9.311549	9.633729	73.815393
3900.000000	10.066901	10.874527	89.953398
3901.000000	10.697936	10.223637	197.015139
3902.000000	9.179479	7.974347	83.983823
3903.000000	9.441279	8.615266	116.276753
3904.000000	8.964298	9.786609	48.080922
3905.000000	9.420126	9.070878	46.398119
3906.000000	8.992625	7.679333	37.874868
3907.000000	9.271815	10.152158	43.662591
3908.000000	8.811599	8.549263	87.318005
3909.000000	12.323477	12.930171	47.180102
3910.000000	12.392049	11.421065	64.185974
3911.000000	10.053922	8.877116	60.566323
3912.000000	10.110940	10.195320	43.942566
3913.000000	9.582501	9.650645	104.202276
3914.000000	8.095968	9.130397	62.730737
3915.000000	9.977743	9.831135	103.198642
3916.000000	10.660348	11.171021	88.284267
3917.000000	9.647513	9.142009	57.204556
3918.000000	10.195080	10.587660	47.890667
3919.000000	9.544849	9.487818	66.418178
3920.000000	10.937011	11.818772	83.668851
3921.000000	10.656975	10.701258	61.654240
3922.000000	11.521550	12.019554	42.084289
3923.000000	11.676520	11.111855	42.383546
3924.000000	9.867720	9.737977	67.417144
3925.000000	9.765653	9.531247	46.895760
3926.000000	10.801531	10.292624	42.480836
3927.000000	10.965312	10.878521	46.676630
3928.000000	12.088609	11.376843	132.837084
3929.000000	11.595638	13.567395	72.944429
3930.000000	10.338779	10.326157	69.439160
3931.000000	10.319635	10.740343	73.234603
3932.000000	10.760170	10.471355	58.914018
3933.000000	11.255427	11.289584	64.074466
3934.000000	10.743099	10.402817	71.702087
3935.000000	11.568065	11.019576	40.857179
3936.000000	11.281977	10.425911	128.843409
3937.000000	11.991641	11.966053	133.988827
3938.000000	10.111518	10.326265	90.603771
3939.000000	11.159920	10.416025	145.697460
3940.000000	11.290966	11.311525	53.054319
3941.000000	10.678403	10.494845	105.725581
3942.000000	11.059764	10.488662	194.303029
3943.000000	10.548813	9.827403	224.344929
3944.000000	8.904050	8.686259	231.090553
3945.000000	11.328729	11.622095	334.745333
3946.000000	10.958207	11.255047	118.065085
3947.000000	10.758198	10.124455	85.533706
3948.000000	10.301088	10.614350	206.391231
3949.000000	12.114767	11.440996	129.398315
3950.000000	10.746399	9.938950	309.848064
3951.000000	10.974441	9.857257	230.592707
3952.000000	11.485974	11.777260	116.162430
3953.000000	10.181274	10.515410	234.456328
3954.000000	12.871604	11.146513	80.694898
3955.000000	11.023322	10.567423	54.438880
3956.000000	10.978677	11.233953	315.411330
3957.000000	10.271084	10.577262	136.662513
3958.000000	11.052664	10.761295	206.984487
3959.000000	12.249860	10.177318	330.721978
3960.000000	11.845007	11.853961	129.563633
3961.000000	11.809463	11.014600	215.393125
3962.000000	10.899807	11.533931	320.099292
3963.000000	11.389982	11.878880	192.061359
3964.000000	11.518363	11.542810	400.761599
3965.000000	10.343946	10.743298	429.069394
3966.000000	11.414316	11.591623	404.257258
3967.000000	10.874020	10.923965	551.765055
3968.000000	12.436875	11.423492	235.869873
3969.000000	10.362950	9.844735	395.584386
3970.000000	10.224548	10.940692	427.772043
3971.000000	10.428985	11.216572	191.731167
3972.000000	11.207267	11.271716	346.019311
3973.000000	12.287245	11.110957	512.575786
3974.000000	10.105589	9.744627	170.783850
3975.000000	12.969835	13.604710	333.994920
3976.000000	9.586656	8.567906	426.281424
3977.000000	10.713783	10.989121	169.931294
3978.000000	11.907615	11.994452	527.818252
3979.000000	12.659714	13.739223	384.323695
3980.000000	9.597767	9.290090	387.552705
3981.000000	10.977374	10.671069	459.821695
3982.000000	12.022967	11.679391	337.976207
3983.000000	11.808955	12.094980	527.624509
3984.000000	11.840123	11.844409	752.001309
3985.000000	10.167684	10.098114	203.288012
3986.000000	13.027067	10.447734	582.144184
3987.000000	11.260939	11.426287	835.434497
3988.000000	11.135553	11.462059	561.792678
3989.000000	11.493367	11.027535	943.739796
3990.000000	13.785601	13.831894	1025.453143
3991.000000	11.629885	10.488621	632.237703
3992.000000	11.449181	12.506758	1271.158003
3993.000000	12.305009	11.996611	826.875319
3994.000000	11.545143	11.244539	804.426022
3995.000000	11.792027	13.847974	1085.095353
3996.000000	12.393503	12.502648	608.361616
3997.000000	11.287652	12.607240	839.578147
3998.000000	11.617120	10.613138	725.955460
3999.000000	11.264200	11.544399	393.770920
4000.000000	12.170650	11.371590	643.689429
4001.000000	12.150432	10.583803	433.524185
4002.000000	13.486019	14.251745	465.582893
4003.000000	12.421031	11.793799	614.618609
4004.000000	12.500402	13.630887	674.640678
4005.000000	13.477179	10.803466	611.532531
4006.000000	11.301535	11.796511	992.119964
4007.000000	11.387785	10.865311	472.282648
4008.000000	12.011091	11.049208	508.292700
4009.000000	14.162036	12.635036	755.363837
4010.000000	12.623360	13.378919	312.636789
4011.000000	12.173443	12.330325	389.632090
4012.000000	13.189875	12.753401	720.199239
4013.000000	14.415694	13.188279	312.172987
4014.000000	13.992625	13.016937	437.758093
4015.000000	12.285742	14.197079	551.774520
4016.000000	11.834600	11.257696	344.643524
4017.000000	15.154353	15.863715	467.006102
4018.000000	13.520025	13.579545	329.090550
4019.000000	15.643637	15.594166	183.256310
4020.000000	13.465007	14.878769	441.545009
4021.000000	16.007142	14.666510	459.759222
4022.000000	14.136794	13.848107	446.186324
4023.000000	13.316933	12.861469	271.235149
4024.000000	14.683222	15.555910	354.739818
4025.000000	14.512368	13.392700	361.606540
4026.000000	12.503381	10.410927	515.002844
4027.000000	13.909869	13.919474	356.868827
4028.000000	14.967218	12.529875	589.178163
4029.000000	15.027157	15.640053	723.402998
4030.000000	15.012219	13.315790	505.280647
4031.000000	14.966159	15.508074	649.848633
4032.000000	16.149803	18.309120	484.844173
4033.000000	15.363586	15.273657	434.187898
4034.000000	15.238036	14.370948	762.751075
4035.000000	15.321729	15.278121	519.697964
4036.000000	14.510893	14.268451	645.225737
4037.000000	14.867044	16.328090	778.060136
4038.000000	15.890801	15.867600	302.193148
4039.000000	14.623348	16.030044	643.419049
4040.000000	15.156041	15.311779	688.880621
4041.000000	15.469506	15.487459	363.631919
4042.000000	14.276524	14.754436	771.735894
4043.000000	15.673107	15.255021	445.846994
4044.000000	13.976522	13.678618	830.236312
4045.000000	14.410372	13.625233	1119.669223
4046.000000	15.038978	16.045022	561.771903
4047.000000	15.917569	16.394387	896.670369
4048.000000	13.903387	14.871085	1241.953057
4049.000000	14.291562	14.246797	448.590189
4050.000000	14.284853	14.206761	936.425434
4051.000000	16.066203	16.973159	738.058540
4052.000000	15.185628	14.428296	690.338559
4053.000000	14.060709	13.367510	987.566485
4054.000000	13.765959	17.936655	948.118782
4055.000000	14.830783	15.274994	681.683237
4056.000000	16.387264	15.273982	782.805177
4057.000000	14.141762	13.332113	717.275896
4058.000000	15.368068	16.285178	710.402518
4059.000000	16.058000	15.830510	831.660405
4060.000000	14.880365	12.212406	408.139470
4061.000000	14.584732	14.402780	718.866115
4062.000000	14.214121	13.094510	615.313610
4063.000000	16.718018	17.366965	375.885905
4064.000000	16.608160	18.010307	695.119533
4065.000000	15.567235	13.938120	448.797738
4066.000000	14.388459	14.426802	373.918374
4067.000000	13.700073	12.309355	459.166964
4068.000000	14.013769	13.567555	442.884441
4069.000000	14.695835	15.109319	301.420530
4070.000000	13.411315	11.879262	531.083992
4071.000000	14.623592	12.664127	420.109396
4072.000000	14.022422	14.022395	345.006921
4073.000000	16.664684	18.725753	370.134096
4074.000000	14.350215	13.665881	370.343089
4075.000000	13.292425	12.592281	473.235624
4076.000000	15.820283	15.477172	580.502957
4077.000000	14.431915	14.254772	202.398947
4078.000000	12.652611	13.758794	469.380148
4079.000000	14.216339	14.003722	386.714311
4080.000000	13.978901	14.426255	266.709839
4081.000000	14.480492	14.060916	466.079495
4082.000000	13.217836	12.479574	368.610825
4083.000000	14.350704	15.573138	530.850220
4084.000000	11.895478	13.456920	492.513697
4085.000000	13.931679	13.453708	455.646752
4086.000000	13.644246	13.490917	533.595039
4087.000000	13.357322	12.312075	610.334163
4088.000000	14.219848	13.120180	323.633929
4089.000000	11.655430	10.435308	547.774953
4090.000000	13.207699	15.101014	489.936869
4091.000000	15.120825	17.255502	372.935906
4092.000000	12.594953	13.729235	902.135708
4093.000000	14.956927	16.177248	534.589030
4094.000000	15.061282	15.567009	745.449349
4095.000000	17.013896	15.841686	673.541473
4096.000000	13.846684	14.009524	340.181668
4097.000000	13.686237	12.244898	294.991271
4098.000000	14.186949	13.112005	781.111319
4099.000000	15.208797	16.486188	339.616802
4100.000000	13.596151	13.391924	955.368551
4101.000000	13.932625	14.375719	700.335417
4102.000000	14.389876	13.715532	272.939095
4103.000000	13.877396	14.352245	788.430900
4104.000000	15.739520	15.269641	751.161858
4105.000000	14.796020	14.557287	426.315800
4106.000000	14.097933	13.879772	456.790414
4107.000000	15.217395	12.748361	513.595949
4108.000000	11.979875	11.000280	388.044994
4109.000000	16.968772	18.069903	933.385615
4110.000000	14.370209	13.540840	223.374025
4111.000000	13.955354	13.723688	658.519997
4112.000000	13.376745	14.852966	562.480120
4113.000000	14.139510	13.781481	275.151395
4114.000000	14.882348	14.921069	406.653815
4115.000000	16.318994	15.868065	490.854032
4116.000000	13.081861	13.383723	316.924862
4117.000000	15.753945	13.955690	437.679045
4118.000000	14.139147	14.355447	353.268628
4119.000000	16.064478	18.404133	261.519443
4120.000000	14.583981	14.741197	481.427638
4121.000000	16.053868	15.941439	365.872530
4122.000000	17.007043	16.738667	373.773981
4123.000000	15.552488	15.157801	461.462577
4124.000000	15.836349	15.458231	212.872343
4125.000000	14.210142	13.697974	351.416724
4126.000000	14.841449	14.498759	318.432024
4127.000000	14.546160	12.553251	262.942286
4128.000000	16.007326	17.035618	240.828913
4129.000000	15.012200	16.979580	237.334009
4130.000000	16.989968	16.518165	192.291609
4131.000000	16.805043	15.088993	506.423619
4132.000000	15.004926	14.322083	282.284354
4133.000000	16.756835	15.195232	273.729930
4134.000000	16.595325	17.258121	163.670764
4135.000000	18.987277	18.212032	322.250673
4136.000000	18.436705	17.614505	150.798297
4137.000000	16.139720	15.614268	242.302905
4138.000000	16.085072	15.199320	114.607623
4139.000000	16.559510	14.808395	195.826563
4140.000000	15.603439	17.006988	89.680169
4141.000000	19.223526	17.645112	97.887991
4142.000000	16.881696	15.902428	105.919131
4143.000000	17.096516	20.281384	119.415183
4144.000000	16.799011	15.694367	82.118490
4145.000000	14.771035	14.353237	79.529608
4146.000000	17.276993	18.883511	106.970145
4147.000000	17.256476	18.477235	77.773341
4148.000000	19.156785	19.776078	213.494678
4149.000000	20.393271	20.289947	128.110008
4150.000000	18.258563	18.876939	153.818292
4151.000000	17.727308	18.713211	121.982443
4152.000000	18.269887	20.390854	93.121203
4153.000000	19.718348	19.126242	84.924253
4154.000000	18.373324	18.669254	64.597939
4155.000000	17.210895	17.593356	130.075530
4156.000000	20.074375	22.160638	71.345567
4157.000000	17.272375	19.129146	82.028772
4158.000000	19.102105	17.139850	85.562730
4159.000000	17.496511	17.830225	113.437103
4160.000000	21.473187	19.423561	146.560267
4161.000000	21.271303	20.218702	107.321744
4162.000000	20.775780	23.826853	91.466834
4163.000000	18.646541	16.915790	54.531904
4164.000000	20.161924	18.446599	162.907040
4165.000000	19.759182	20.751706	101.518695
4166.000000	20.111598	21.109058	80.311711
4167.000000	21.014801	20.827005	101.099941
4168.000000	18.917490	19.886536	137.283740
4169.000000	20.888279	19.317881	75.959672
4170.000000	18.601236	18.304676	79.730913
4171.000000	21.923663	24.047645	86.751278
4172.000000	22.492414	22.478179	78.998772
4173.000000	21.840197	22.086223	80.145612
4174.000000	19.284829	18.969925	148.288842
4175.000000	23.141425	26.391218	91.936695
4176.000000	20.896093	20.784378	105.504674
4177.000000	19.712557	18.989361	76.310121
4178.000000	22.350349	25.079947	111.583715
4179.000000	20.856770	19.760388	87.010399
4180.000000	22.300761	23.777939	112.560084
4181.000000	22.485896	24.562396	105.429616
4182.000000	21.113995	22.593674	127.829579
4183.000000	20.201079	20.283659	94.037264
4184.000000	25.471661	27.384214	129.458844
4185.000000	19.745009	18.837546	117.718869
4186.000000	18.601570	18.738219	115.964049
4187.000000	22.949759	21.512397	117.006969
4188.000000	23.068701	22.612204	160.893143
4189.000000	21.875118	23.372035	84.915008
4190.000000	21.138348	21.994378	85.156943
4191.000000	23.513815	24.735734	58.759743
4192.000000	21.646098	20.896647	110.133598
4193.000000	18.032787	17.424053	201.589866
4194.000000	18.991871	19.385257	93.709852
4195.000000	19.947996	18.656058	110.309622
4196.000000	23.043137	22.527481	89.174852
4197.000000	20.678461	18.330751	76.680635
4198.000000	24.213405	24.183906	83.532039
4199.000000	19.666663	21.470031	101.834422
4200.000000	19.714514	19.653266	117.198964
4201.000000	20.884009	20.266408	46.618444
4202.000000	19.921190	21.516222	71.448843
4203.000000	19.637396	19.116974	117.833350
4204.000000	19.428589	20.153594	95.571844
4205.000000	20.888367	21.824123	67.495889
4206.000000	19.207187	18.662330	135.183586
4207.000000	19.630154	20.426489	147.503747
4208.000000	17.776629	19.788547	70.179723
4209.000000	18.699449	20.413717	83.399221
4210.000000	18.936484	21.482799	75.111497
4211.000000	18.996343	18.325590	121.599081
4212.000000	17.327540	17.982696	89.602745
4213.000000	19.688584	19.829813	72.237872
4214.000000	18.488536	17.094831	85.444164
4215.000000	17.391083	16.390200	167.783723
4216.000000	17.854104	18.572903	87.022376
4217.000000	19.893655	17.394367	83.471970
4218.000000	16.274346	16.449529	85.891557
4219.000000	16.666991	16.262251	87.431565
4220.000000	14.817993	14.446608	61.319393
4221.000000	19.025118	19.608893	86.063793
4222.000000	17.313482	14.820053	63.229733
4223.000000	17.417578	16.278812	59.523760
4224.000000	15.797977	14.709054	123.363743
4225.000000	18.104705	17.201593	95.661904
4226.000000	14.386480	13.678129	51.071015
4227.000000	15.422572	14.186305	61.512893
4228.000000	15.839708	15.722158	65.084809
4229.000000	16.080881	16.183204	65.376609
4230.000000	16.004915	15.339138	78.745792
4231.000000	16.853284	17.208964	87.171660
4232.000000	16.042101	17.416509	73.449224
4233.000000	15.751697	16.270108	49.927168
4234.000000	17.186582	16.990675	70.319434
4235.000000	14.900362	15.553186	106.579467
4236.000000	13.917217	14.558178	150.190954
4237.000000	13.659051	12.861628	72.839658
4238.000000	15.289587	15.917533	93.296573
4239.000000	13.759738	13.473449	53.615393
4240.000000	13.951620	12.420818	70.717344
4241.000000	13.959455	14.509971	58.514272
4242.000000	14.619826	16.544883	60.457431
4243.000000	15.559946	15.629001	72.484568
4244.000000	14.770430	17.821258	70.413958
4245.000000	15.069431	16.431595	70.951650
4246.000000	14.796097	12.330283	66.043307
4247.000000	15.006133	15.667171	69.710965
4248.000000	13.538882	12.766560	62.710271
4249.000000	11.968529	11.040616	70.428417
4250.000000	13.267565	12.182461	57.602835
4251.000000	13.798105	13.259790	60.616741
4252.000000	13.850256	13.265519	72.213472
4253.000000	13.420289	13.930032	36.878472
4254.000000	12.831812	11.886832	70.011275
4255.000000	13.872232	13.896027	49.060230
4256.000000	13.433977	12.603273	76.808565
4257.000000	12.254415	13.066822	56.128390
4258.000000	14.512417	13.744686	76.723680
4259.000000	13.717960	12.900590	65.525809
4260.000000	13.073282	12.146037	44.858551
4261.000000	13.032915	12.605326	86.402096
4262.000000	13.221035	14.456154	102.198569
4263.000000	13.295263	12.722850	67.664270
4264.000000	12.314161	11.560025	61.951815
4265.000000	13.269882	13.152507	62.297396
4266.000000	12.289373	11.132496	98.631561
4267.000000	12.408931	12.255630	69.084219
4268.000000	12.749274	12.377512	48.285112
4269.000000	13.883226	14.429349	61.499771
4270.000000	12.973613	11.825718	64.311986
4271.000000	12.623864	11.950837	75.648365
4272.000000	13.237531	14.643969	90.120418
4273.000000	12.954752	10.810947	200.386004
4274.000000	13.142114	13.652965	76.351895
4275.000000	13.472554	12.446975	132.654546
4276.000000	12.817617	15.133284	160.622329
4277.000000	12.710577	13.074075	88.124536
4278.000000	13.218556	14.021401	210.063010
4279.000000	13.110318	14.551891	152.775849
4280.000000	13.576915	13.476376	131.846913
4281.000000	13.675647	13.193848	82.805767
4282.000000	11.874462	12.439081	118.010062
4283.000000	11.813324	12.034548	76.105365
4284.000000	13.446553	11.817761	61.480437
4285.000000	14.038048	13.161226	72.641243
4286.000000	12.406259	12.317875	91.080183
4287.000000	13.044458	12.563929	102.061913
4288.000000	12.535997	13.365836	75.350401
4289.000000	12.839891	13.595103	78.927565
4290.000000	14.601532	13.555767	89.223134
4291.000000	12.567629	13.072564	63.825601
4292.000000	12.311313	12.551460	63.630850
4293.000000	12.259651	13.370176	60.131759
4294.000000	12.809649	11.700450	53.426107
4295.000000	15.644964	16.202415	159.898195
4296.000000	13.016754	13.554910	105.537004
4297.000000	13.654804	13.149799	32.263519
4298.000000	12.623496	12.594021	70.016692
4299.000000	11.893128	11.781966	48.465474
4300.000000	12.629890	11.098973	52.630483
4301.000000	13.192751	12.104771	52.496450
4302.000000	12.766516	13.062138	87.309126
4303.000000	12.091477	11.678162	215.578003
4304.000000	12.727925	14.256881	78.624992
4305.000000	12.035389	11.829204	72.052138
4306.000000	12.971702	13.349806	49.344983
4307.000000	12.181489	12.417741	71.252419
4308.000000	11.622281	11.033942	77.500410
4309.000000	12.102800	12.037141	152.887189
4310.000000	10.662742	10.676790	79.418507
4311.000000	12.160453	11.560081	52.393493
4312.000000	12.054192	11.628803	87.120711
4313.000000	11.921224	11.998902	77.314413
4314.000000	12.457309	11.553147	112.027893
4315.000000	12.485609	12.400031	54.279063
4316.000000	12.018974	12.060387	49.234350
4317.000000	14.496682	15.113149	141.351126
4318.000000	13.621776	13.222528	94.111138
4319.000000	15.216222	15.527608	91.941418
4320.000000	12.413946	11.649081	107.637951
4321.000000	11.516893	13.744058	65.208475
4322.000000	12.740164	13.844405	112.635369
4323.000000	12.199062	10.373471	67.520972
4324.000000	13.154695	12.834487	49.359582
4325.000000	12.662592	12.948910	85.459864
4326.000000	13.223693	12.819455	84.556509
4327.000000	12.310573	11.805209	68.784112
4328.000000	11.815769	10.600902	101.525381
4329.000000	13.629459	11.674280	62.851595
4330.000000	12.789831	12.056452	63.507079
4331.000000	12.692424	11.388816	151.140895
4332.000000	12.753790	12.425062	116.919941
4333.000000	12.214995	11.710364	143.925278
4334.000000	13.376558	12.623846	56.739180
4335.000000	11.448228	11.870615	68.297858
4336.000000	13.326869	11.374408	71.497181
4337.000000	13.765322	14.727860	131.744496
4338.000000	13.082283	12.357098	65.870386
4339.000000	13.641811	12.344157	69.707330
4340.000000	12.155228	11.698665	102.432384
4341.000000	12.412402	11.467452	63.348103
4342.000000	12.363607	13.220401	204.469113
4343.000000	12.874435	12.193858	106.899530
4344.000000	12.603676	11.534366	67.631305
4345.000000	11.843626	10.994788	218.383686
4346.000000	11.959615	10.880795	78.413312
4347.000000	12.325937	12.799263	83.538683
4348.000000	13.492146	13.342573	115.045704
4349.000000	11.961150	11.982100	70.813308
4350.000000	12.631121	12.040060	68.682910
4351.000000	13.391215	12.949735	123.990062
4352.000000	12.824222	12.945255	62.259642
4353.000000	11.695876	12.816203	221.261371
4354.000000	13.858986	13.749625	94.586804
4355.000000	11.388130	10.136618	104.005062
4356.000000	12.406935	12.475584	245.139229
4357.000000	12.567490	12.794167	73.781673
4358.000000	11.727713	12.201106	146.109442
4359.000000	11.854635	10.377728	219.031405
4360.000000	11.492489	10.675358	52.942679
4361.000000	10.912430	10.613930	78.833991
4362.000000	13.294141	13.209861	65.111415
4363.000000	10.873473	10.980208	73.119439
4364.000000	11.393003	11.644519	46.486901
4365.000000	12.427666	12.165433	40.366807
4366.000000	11.410954	10.189689	153.058848
4367.000000	13.113029	14.520564	102.041593
4368.000000	12.445904	12.375698	79.401102
4369.000000	11.372697	9.478910	56.360004
4370.000000	11.420247	12.052681	136.099425
4371.000000	10.932728	10.224930	73.830323
4372.000000	10.763504	9.463263	74.648845
4373.000000	11.341920	10.817866	106.488154
4374.000000	11.896309	12.331329	41.802608
4375.000000	11.707391	12.798050	158.671254
4376.000000	11.418637	11.864667	51.515917
4377.000000	11.103195	10.025874	102.410219
4378.000000	10.051112	10.043886	202.424002
4379.000000	10.723985	10.960137	72.112780
4380.000000	9.546268	10.650701	57.347314
4381.000000	10.366363	10.773078	148.503742
4382.000000	11.544224	12.958179	77.196692
4383.000000	10.512357	11.896019	152.849972
4384.000000	12.208772	12.550457	135.907153
4385.000000	11.529946	11.792039	41.603456
4386.000000	10.046564	9.108493	52.281406
4387.000000	11.174692	10.014866	48.407697
4388.000000	10.026580	9.630312	41.298630
4389.000000	8.899000	7.940939	132.131793
4390.000000	10.981302	11.829476	43.621114
4391.000000	10.831860	10.559372	103.942342
4392.000000	11.025946	10.882382	84.567074
4393.000000	10.322904	10.323742	42.463810
4394.000000	9.791953	10.703501	44.945424
4395.000000	10.194992	10.940074	94.214650
4396.000000	10.763489	11.134987	48.675789
4397.000000	10.599672	11.173592	87.438642
4398.000000	9.476254	9.281002	61.916017
4399.000000	9.911152	9.621537	61.427816
4400.000000	9.078192	9.180801	115.308717
4401.000000	10.105312	10.073988	150.806193
4402.000000	10.402933	11.006204	43.988079
4403.000000	9.329425	9.097148	132.455135
4404.000000	10.527102	9.252945	136.549147
4405.000000	9.400303	9.470777	172.043502
4406.000000	10.094845	10.185932	194.080307
4407.000000	10.207606	9.865515	85.402931
4408.000000	8.718769	7.866418	97.081286
4409.000000	8.888422	9.650840	117.496371
4410.000000	9.969003	10.682112	48.452104
4411.000000	9.835888	9.027587	74.298498
4412.000000	10.748057	9.793386	134.229005
4413.000000	10.097172	10.843746	111.305874
4414.000000	9.924810	9.693197	106.774330
4415.000000	10.028891	9.552874	90.471606
4416.000000	10.420825	10.075407	61.621710
4417.000000	9.589296	8.758358	74.129491
4418.000000	9.586877	8.818768	98.116128
4419.000000	9.630307	10.378261	53.486955
4420.000000	8.527183	8.641570	50.688852
4421.000000	8.704588	8.546405	46.199178
4422.000000	10.659831	9.559292	87.795445
4423.000000	9.389925	9.166829	78.062487
4424.000000	10.334814	10.699463	58.720662
4425.000000	9.842298	9.791106	60.202146
4426.000000	9.424067	9.030025	46.414270
4427.000000	10.960264	10.833110	37.556703
4428.000000	9.382726	10.185911	31.043189
4429.000000	9.741828	9.515870	51.964537
4430.000000	10.476420	12.199561	64.893402
4431.000000	9.514882	9.032135	74.370482
4432.000000	10.233700	10.148337	40.172450
4433.000000	8.414152	8.675822	46.050150
4434.000000	9.392064	8.223056	43.274380
4435.000000	10.421295	10.943452	49.830959
4436.000000	10.151289	9.878890	59.640558
4437.000000	9.485274	8.828429	54.952915
4438.000000	10.096467	10.474908	63.799092
4439.000000	10.414670	11.165122	35.595133
4440.000000	10.388933	10.745826	57.090215
4441.000000	8.951125	9.155763	33.866753
4442.000000	9.493326	8.785143	42.966882
4443.000000	10.133524	9.501476	61.804287
4444.000000	9.018810	9.213726	79.918761
4445.000000	10.196618	10.508627	36.654275
4446.000000	8.684298	7.503967	46.315487
4447.000000	8.894588	7.729099	41.344447
4448.000000	9.717038	9.242216	55.151198
4449.000000	11.035079	11.380004	53.462347
4450.000000	10.092834	10.248132	76.784577
4451.000000	10.512910	9.710783	68.130756
4452.000000	11.029237	10.005245	39.666121
4453.000000	10.316433	9.167720	70.253428
4454.000000	8.945323	8.657647	50.973206
4455.000000	10.870454	10.823992	65.131391
4456.000000	10.148709	9.471720	49.028019
4457.000000	10.849505	10.606563	56.513319
4458.000000	8.275109	8.527116	41.898301
4459.000000	9.070409	9.124468	63.317813
4460.000000	9.192769	9.781892	47.714414
4461.000000	9.390355	9.519990	65.872821
4462.000000	10.462506	9.572913	72.365065
4463.000000	9.753491	9.445853	46.520654
4464.000000	10.145808	8.886979	59.899308
4465.000000	9.601766	9.911617	64.025273
4466.000000	9.493429	9.779922	56.363037
4467.000000	9.889746	10.275317	39.542347
4468.000000	9.262549	8.720171	42.804691
4469.000000	9.377107	7.768730	44.221825
4470.000000	9.385272	8.782984	50.842328
4471.000000	9.663757	9.601982	35.937163
4472.000000	9.916300	9.368713	30.468654
4473.000000	8.273837	7.871240	37.380120
4474.000000	10.746485	11.434545	42.030866
4475.000000	9.768999	9.002612	44.715218
4476.000000	10.243181	10.252340	58.481835
4477.000000	9.338207	9.934537	33.859049
4478.000000	10.571235	11.258045	53.959441
4479.000000	10.185256	10.765646	62.860620
4480.000000	9.488944	9.640130	52.580598
4481.000000	10.962149	11.470741	53.568732
4482.000000	10.299535	9.596537	72.941976
4483.000000	10.865228	10.505775	53.397956
4484.000000	10.636246	10.312600	45.574279
4485.000000	9.731703	9.316967	69.732608
4486.000000	10.636826	11.063392	45.650048
4487.000000	10.103875	8.766479	35.188478
4488.000000	10.033972	9.988305	66.178321
4489.000000	11.202190	10.741776	37.585765
4490.000000	9.891264	9.269512	36.944517
4491.000000	10.444715	9.963991	74.565834
4492.000000	12.222130	11.009724	56.997789
4493.000000	11.043622	10.855335	105.279174
4494.000000	10.916483	10.200633	55.672796
4495.000000	10.623078	10.360612	55.983088
4496.000000	10.293432	10.934786	27.157164
4497.000000	12.701190	12.733879	50.252789
4498.000000	12.263611	13.271708	106.531861
4499.000000	12.271958	12.571209	43.620783
4500.000000	10.825166	10.531430	85.066539
4501.000000	11.426809	11.482370	125.776550
4502.000000	12.221491	11.300790	99.729687
4503.000000	11.441237	11.200764	90.227310
4504.000000	12.016119	12.438632	93.885058
4505.000000	9.956625	10.908537	56.586657
4506.000000	12.149321	11.322823	87.206288
4507.000000	12.860414	11.344048	55.535569
4508.000000	13.479257	15.639640	88.339403
4509.000000	11.668222	11.046628	75.271972
4510.000000	12.231372	10.886214	121.919148
4511.000000	11.562070	11.519935	44.165528
4512.000000	11.419817	11.945256	43.669092
4513.000000	11.033652	10.649013	111.429218
4514.000000	12.135417	13.250048	75.803188
4515.000000	11.808557	10.878063	40.976203
4516.000000	11.755603	12.776581	100.251678
4517.000000	12.905165	12.978724	75.718998
4518.000000	13.079663	11.454525	68.645094
4519.000000	12.341631	11.260867	80.666598
4520.000000	14.535930	15.007230	63.542235
4521.000000	12.661149	12.110702	65.597109
4522.000000	12.985087	12.784084	91.303925
4523.000000	12.503757	11.659712	56.071412
4524.000000	11.260713	11.782749	49.167678
4525.000000	12.460817	13.534797	61.960566
4526.000000	13.591953	13.808689	77.161718
4527.000000	13.782674	12.879200	51.010865
4528.000000	13.038750	12.770537	47.313560
4529.000000	13.663219	12.252073	73.374903
4530.000000	14.941522	14.599761	56.561069
4531.000000	14.673937	15.059252	54.517545
4532.000000	12.699591	14.028379	58.879272
4533.000000	13.336863	15.310529	78.606318
4534.000000	13.967306	13.782918	52.131224
4535.000000	14.157120	13.245224	42.400702
4536.000000	12.626961	13.315717	91.411477
4537.000000	16.319421	15.638419	87.963373
4538.000000	14.981091	14.212003	74.541964
4539.000000	12.860687	13.081483	50.651849
4540.000000	14.432948	13.941228	78.713729
4541.000000	13.555003	13.161651	72.763092
4542.000000	14.442250	16.150366	73.927962
4543.000000	14.495606	14.526039	46.072188
4544.000000	15.412618	15.463569	64.319868
4545.000000	14.765290	13.653382	81.405100
4546.000000	15.308499	14.710864	94.452703
4547.000000	14.969120	15.375606	50.999675
4548.000000	13.923707	14.270799	60.031209
4549.000000	15.859879	16.802503	133.655531
4550.000000	16.987749	16.914651	83.087303
4551.000000	17.980404	16.251736	73.478867
4552.000000	18.041125	18.931937	100.075389
4553.000000	16.162155	15.307483	120.882362
4554.000000	15.920222	15.359237	75.793609
4555.000000	16.389214	15.835993	108.787181
4556.000000	14.961631	15.080992	76.128025
4557.000000	16.462457	16.776529	104.987849
4558.000000	15.342551	14.953939	69.472762
4559.000000	14.383724	13.900786	89.376198
4560.000000	18.395725	19.283223	96.418818
4561.000000	16.205753	15.678083	68.167245
4562.000000	19.448215	19.039142	85.517083
4563.000000	16.421821	15.796407	69.699598
4564.000000	16.526332	16.973270	63.975172
4565.000000	16.698741	16.205261	56.403794
4566.000000	18.313285	17.874369	101.765047
4567.000000	16.670110	14.773536	96.348976
4568.000000	18.144774	15.498465	53.087300
4569.000000	17.227687	16.880254	54.805727
4570.000000	18.278634	17.882812	73.344330
4571.000000	15.391666	14.655107	130.758693
4572.000000	16.167247	16.386857	147.027313
4573.000000	17.180416	17.140618	148.987659
4574.000000	17.783784	18.630238	95.551406
4575.000000	17.268281	18.911628	171.334191
4576.000000	17.826538	20.141080	90.474800
4577.000000	16.912778	20.245324	103.822976
4578.000000	18.401092	19.443779	80.120561
4579.000000	16.651531	14.865552	106.261842
4580.000000	18.476108	20.095512	52.799741
4581.000000	15.022390	14.085005	125.095117
4582.000000	18.417459	16.672547	114.917856
4583.000000	19.481422	17.561024	85.233280
4584.000000	17.101966	18.006260	144.577033
4585.000000	19.975304	20.665329	128.114739
4586.000000	18.018862	20.023549	153.783201
4587.000000	19.312596	18.276388	239.122584
4588.000000	19.546682	18.242032	102.502268
4589.000000	17.893946	18.011538	105.581722
4590.000000	19.928901	19.483120	130.908115
4591.000000	19.663046	18.792893	108.058186
4592.000000	19.100059	19.480963	172.886528
4593.000000	17.274410	20.490735	126.135085
4594.000000	17.591841	17.765666	86.343581
4595.000000	18.853704	19.158906	130.958837
4596.000000	18.588971	19.812779	96.707771
4597.000000	20.457354	20.561991	103.457326
4598.000000	19.440752	20.249657	95.474146
4599.000000	18.830014	16.803947	106.117333
4600.000000	18.670567	17.659325	108.805791
4601.000000	19.813595	19.966432	193.584816
4602.000000	19.240357	17.513519	105.864377
4603.000000	16.109982	13.967499	69.215577
4604.000000	17.913889	17.116901	176.624257
4605.000000	21.842124	20.685895	119.085596
4606.000000	19.468246	17.014300	122.561269
4607.000000	18.849935	18.851837	59.133837
4608.000000	19.804165	20.023824	79.182017
4609.000000	20.476656	21.676633	97.491632
4610.000000	19.914157	19.920720	93.186721
4611.000000	20.656413	20.090596	76.544778
4612.000000	21.721293	20.987270	123.502368
4613.000000	19.858382	20.397029	114.961432
4614.000000	19.177689	18.892988	111.405045
4615.000000	20.025557	20.093740	84.260751
4616.000000	22.333090	20.670807	83.462328
4617.000000	19.343798	18.293455	129.636263
4618.000000	19.287341	19.897611	64.000216
4619.000000	22.231800	24.282847	78.976377
4620.000000	20.552819	19.275585	72.501567
4621.000000	20.948029	21.979651	72.993080
4622.000000	20.939741	19.776302	125.053791
4623.000000	16.838923	16.297140	123.258606
4624.000000	21.470605	21.850494	96.772044
4625.000000	19.210501	19.342434	64.874172
4626.000000	18.914329	19.212665	68.314642
4627.000000	20.878545	21.336006	67.831517
4628.000000	17.718494	18.323540	61.594631
4629.000000	19.543809	19.884424	87.764724
4630.000000	18.390231	17.426370	56.679884
4631.000000	19.551060	17.756077	165.514348
4632.000000	18.764958	20.472394	108.432650
4633.000000	18.568280	19.207275	102.868964
4634.000000	18.440906	17.542755	74.367162
4635.000000	18.832490	20.128468	64.182822
4636.000000	20.159288	20.037951	99.439556
4637.000000	17.531894	15.655896	69.287049
4638.000000	18.652131	18.379651	111.053925
4639.000000	18.176898	17.979698	73.585742
4640.000000	18.256376	17.671364	93.937959
4641.000000	17.485753	17.988366	120.016572
4642.000000	18.279942	17.890136	84.916566
4643.000000	18.813297	19.331655	68.537138
4644.000000	17.805155	18.552303	128.666470
4645.000000	19.188375	18.055816	116.852771
4646.000000	17.635779	17.715200	86.106350
4647.000000	18.193675	19.131295	75.136227
4648.000000	17.998949	18.160403	185.356386
4649.000000	17.386741	17.188561	91.320130
4650.000000	16.325250	15.537497	107.709340
4651.000000	15.342728	15.683591	79.390973
4652.000000	17.431729	18.506875	68.693457
4653.000000	17.884429	18.548307	160.405467
4654.000000	16.953667	16.236311	87.940685
4655.000000	16.247898	14.979561	147.209979
4656.000000	15.700847	13.578387	152.316260
4657.000000	18.022177	18.101670	67.638531
4658.000000	18.973244	18.740186	87.455052
4659.000000	18.468126	17.329566	167.257002
4660.000000	17.792166	18.633707	69.995971
4661.000000	17.401050	16.988800	150.898001
4662.000000	18.595405	18.763023	144.580499
4663.000000	20.610709	19.912104	82.148491
4664.000000	19.023523	17.360416	112.627372
4665.000000	19.499745	19.153005	147.249359
4666.000000	19.693191	21.251107	159.397603
4667.000000	19.287174	18.643253	124.143435
4668.000000	19.897581	22.002709	148.779966
4669.000000	20.919489	22.997858	75.880449
4670.000000	19.352897	18.844721	331.744622
4671.000000	20.009046	19.302057	214.677909
4672.000000	20.817842	21.214063	97.823287
4673.000000	21.451315	24.111339	152.779855
4674.000000	21.913737	19.653976	192.740696
4675.000000	20.553246	18.323125	112.208844
4676.000000	21.052489	17.881111	185.999671
4677.000000	21.505284	20.683679	90.738256
4678.000000	23.573142	23.975318	348.481623
4679.000000	21.572204	20.128049	350.800188
4680.000000	22.930135	23.440355	220.527191
4681.000000	22.466570	21.700671	434.033998
4682.000000	20.918418	19.658225	185.395373
4683.000000	23.409782	26.801194	594.902521
4684.000000	18.970820	16.721710	155.270756
4685.000000	21.082407	24.145768	207.412727
4686.000000	22.794786	21.542493	436.668158
4687.000000	22.170906	19.594960	257.130205
4688.000000	21.852621	21.185616	319.841848
4689.000000	24.995224	23.468606	233.567564
4690.000000	22.085325	22.384570	754.579546
4691.000000	24.850725	22.323754	189.737574
4692.000000	23.172365	22.499397	474.313005
4693.000000	20.694930	20.308874	328.486488
4694.000000	24.111486	23.415647	368.290873
4695.000000	22.128750	23.237850	216.567470
4696.000000	23.515929	22.990604	134.409050
4697.000000	22.834357	21.729942	299.923570
4698.000000	24.303097	26.494217	282.074157
4699.000000	23.219764	22.950569	89.298483
4700.000000	22.181221	24.475295	120.303085
4701.000000	21.735111	23.171747	381.330482
4702.000000	21.287937	22.444509	178.150468
4703.000000	20.378381	21.515224	463.241724
4704.000000	21.654012	25.196836	274.130453
4705.000000	19.219014	21.940949	161.901813
4706.000000	23.031995	22.532494	402.837878
4707.000000	22.436633	25.843382	115.783829
4708.000000	21.755773	22.022654	136.710918
4709.000000	22.085072	20.876707	117.835166
4710.000000	18.307347	21.334092	71.307519
4711.000000	19.372548	18.673119	101.179396
4712.000000	19.802991	21.749091	134.965154
4713.000000	19.544864	20.099046	68.134871
4714.000000	18.513398	18.259533	74.869082
4715.000000	20.919901	20.676234	106.431536
4716.000000	21.189241	21.029903	90.041622
4717.000000	18.091076	16.952892	72.665341
4718.000000	20.608751	18.972835	88.470674
4719.000000	23.124846	19.637430	125.303700
4720.000000	20.346434	21.701150	194.096210
4721.000000	20.101218	20.686500	158.553845
4722.000000	22.456083	22.247351	286.640981
4723.000000	20.268486	18.792955	236.633647
4724.000000	19.969846	19.480457	59.826140
4725.000000	21.708942	22.230036	287.675612
4726.000000	19.688552	21.084827	76.795637
4727.000000	18.861314	18.585826	97.681776
4728.000000	18.818268	19.875388	80.769121
4729.000000	20.377913	21.441249	94.781744
4730.000000	18.195039	18.860569	94.681389
4731.000000	20.806626	20.824258	87.945936
4732.000000	19.945525	20.217401	83.838393
4733.000000	20.566861	21.611984	71.533864
4734.000000	19.432282	19.404778	89.907906
4735.000000	16.582849	17.685758	76.515026
4736.000000	19.760423	17.264337	114.944723
4737.000000	19.041809	17.203738	105.734727
4738.000000	16.815948	16.612929	79.023004
4739.000000	21.619141	26.737432	97.340445
4740.000000	16.486300	18.061145	92.816977
4741.000000	20.377875	20.494125	64.688207
4742.000000	17.845523	19.342061	93.254747
4743.000000	18.947136	21.295958	90.531674
4744.000000	19.884109	19.375100	51.043518
4745.000000	16.624027	17.557653	63.577124
4746.000000	18.421772	17.084476	92.105085
4747.000000	16.210256	16.927127	112.467203
4748.000000	17.944428	17.182049	89.379824
4749.000000	17.011812	17.403012	85.089698
4750.000000	17.805943	19.255853	87.590559
4751.000000	17.162525	16.241244	85.251218
4752.000000	16.551965	17.031081	60.778896
4753.000000	15.523278	14.376215	83.980023
4754.000000	18.625038	19.257647	63.897763
4755.000000	17.267217	15.399193	83.537971
4756.000000	16.320038	14.128981	75.716242
4757.000000	16.123752	16.138919	70.860618
4758.000000	18.020914	18.432951	84.508204
4759.000000	16.879584	15.795086	86.586539
4760.000000	15.615556	15.266151	78.223164
4761.000000	15.654029	14.842260	132.623614
4762.000000	16.136645	14.066070	82.048686
4763.000000	15.422624	14.722984	104.003900
4764.000000	16.122512	18.498977	116.722440
4765.000000	16.410758	14.975234	98.181866
4766.000000	15.517515	14.094442	56.788467
4767.000000	17.321578	17.660148	119.979794
4768.000000	15.934960	15.184189	124.359695
4769.000000	16.151514	17.731470	136.192829
4770.000000	14.645688	15.353483	217.087351
4771.000000	16.474993	14.573834	92.318459
4772.000000	16.924004	17.806862	134.901625
4773.000000	16.899702	16.738452	218.771951
4774.000000	15.076119	16.555071	79.889447
4775.000000	14.331542	15.208971	166.043478
4776.000000	14.707055	14.507479	80.832369
4777.000000	15.240928	15.787070	111.670364
4778.000000	15.272058	14.288046	62.828254
4779.000000	14.520767	15.368232	125.194912
4780.000000	13.557144	13.559063	62.370894
4781.000000	13.875523	14.239353	55.308475
4782.000000	14.903590	15.362628	100.643156
4783.000000	14.204088	14.357813	67.930387
4784.000000	13.864486	14.005864	146.026835
4785.000000	12.806175	13.323255	96.858649
4786.000000	14.840669	14.553313	83.530502
4787.000000	15.582110	16.940431	58.129936
4788.000000	14.236300	14.112317	99.127371
4789.000000	13.486656	13.128413	93.620856
4790.000000	14.566479	14.092669	153.616259
4791.000000	15.122339	15.398840	140.886564
4792.000000	13.478616	12.023560	153.816609
4793.000000	13.980229	13.535877	108.610887
4794.000000	14.073746	12.767786	59.912809
4795.000000	14.664578	16.141059	79.145027
4796.000000	14.671992	14.134195	160.296058
4797.000000	12.773456	12.755730	116.198265
4798.000000	12.518012	11.089683	129.620264
4799.000000	13.784167	12.787082	78.223091
4800.000000	12.849681	12.574345	161.019923
4801.000000	13.124520	11.328366	128.833907
4802.000000	12.946935	14.083139	135.708790
4803.000000	12.428451	12.200760	181.925186
4804.000000	13.498682	13.614664	202.305321
4805.000000	11.478244	11.390068	259.147531
4806.000000	12.131312	11.929593	137.571606
4807.000000	13.638340	13.539850	270.704980
4808.000000	13.428138	14.113588	268.068325
4809.000000	14.806726	13.748921	367.422169
4810.000000	12.843091	13.035047	189.269790
4811.000000	13.037793	14.149277	200.059126
4812.000000	14.288497	15.142241	334.400367
4813.000000	12.195203	13.499829	115.599348
4814.000000	12.541791	13.108281	144.990309
4815.000000	14.241246	13.390644	219.169174
4816.000000	14.247792	14.839677	268.198522
4817.000000	12.287125	12.080243	131.374504
4818.000000	13.580901	14.820396	313.093557
4819.000000	12.952934	12.520042	104.327883
4820.000000	13.549137	11.947772	279.954697
4821.000000	12.988770	12.670662	257.632248
4822.000000	14.218196	15.071312	276.191605
4823.000000	13.631145	13.639258	159.653715
4824.000000	12.492727	10.888693	139.079782
4825.000000	12.696496	12.074221	216.879002
4826.000000	13.713511	15.256146	207.477913
4827.000000	12.342766	11.376619	176.340503
4828.000000	12.102851	12.404917	260.370009
4829.000000	12.911690	12.067681	82.366733
4830.000000	15.802561	14.628906	155.423109
4831.000000	13.747375	15.588503	209.261944
4832.000000	12.630023	13.004260	253.691728
4833.000000	12.688026	12.238036	95.993104
4834.000000	14.832459	14.718269	81.525732
4835.000000	13.365360	13.654653	91.899427
4836.000000	13.343351	12.851073	204.457025
4837.000000	12.362938	10.898029	131.624500
4838.000000	13.366763	13.235473	106.402998
4839.000000	10.904780	10.481204	76.199557
4840.000000	13.283368	13.723496	70.105610
4841.000000	13.147498	13.759133	91.951700
4842.000000	12.769539	12.362095	99.515389
4843.000000	15.650223	14.604932	79.174107
4844.000000	13.438295	13.661932	51.788474
4845.000000	13.600308	12.840517	52.672575
4846.000000	13.604248	14.148222	91.570406
4847.000000	13.326256	13.342993	94.896518
4848.000000	13.976714	13.929461	49.445014
4849.000000	11.768381	11.911801	100.381401
4850.000000	13.731869	12.886387	120.128300
4851.000000	11.506448	11.300551	139.320541
4852.000000	12.431706	10.546827	112.308619
4853.000000	12.129342	10.399406	112.270344
4854.000000	12.683431	12.856219	77.628600
4855.000000	13.182481	14.195095	125.006658
4856.000000	11.507682	11.760313	118.188228
4857.000000	12.327911	11.291479	80.321681
4858.000000	13.118952	12.348775	122.756112
4859.000000	11.133804	9.944070	61.826560
4860.000000	12.658944	12.642377	82.504864
4861.000000	12.648999	11.764391	99.917311
4862.000000	12.558066	12.517777	102.288559
4863.000000	12.798638	12.709874	69.759255
4864.000000	13.248128	13.973108	83.089684
4865.000000	11.925625	11.288813	66.425924
4866.000000	10.515188	10.670150	94.303568
4867.000000	11.650983	11.431670	95.253885
4868.000000	10.461584	8.541398	64.829151
4869.000000	10.183433	10.037003	74.568877
4870.000000	11.098880	11.104157	129.301432
4871.000000	12.165348	12.245736	47.557243
4872.000000	12.889513	12.461583	84.842277
4873.000000	11.802829	12.787769	54.190206
4874.000000	12.806848	12.676362	76.446739
4875.000000	12.799107	11.614237	47.638295
4876.000000	12.029485	11.600661	69.760145
4877.000000	12.559884	12.672766	39.476286
4878.000000	11.634480	12.312455	60.244354
4879.000000	11.483422	10.790195	36.316609
4880.000000	9.695827	8.944199	38.301901
4881.000000	13.187447	13.917042	50.023289
4882.000000	11.486957	11.437114	130.312145
4883.000000	11.872005	11.603976	50.694610
4884.000000	12.408066	11.444136	75.889099
4885.000000	11.392792	10.163511	102.479835
4886.000000	10.544651	9.854112	80.581359
4887.000000	11.321239	11.008227	69.442418
4888.000000	10.624472	10.289887	51.497070
4889.000000	11.519419	11.265231	73.090215
4890.000000	10.594761	11.233539	98.199797
4891.000000	10.427136	11.421669	40.039991
4892.000000	10.846431	12.144853	56.106959
4893.000000	11.566206	11.204289	42.409359
4894.000000	11.083595	11.403863	84.104800
4895.000000	12.017957	12.463090	78.580615
4896.000000	10.937775	10.250148	45.366888
4897.000000	9.785230	9.679378	55.031165
4898.000000	10.469727	8.711010	40.146036
4899.000000	10.772142	10.096688	86.391667
4900.000000	12.246640	12.205104	39.201595
4901.000000	11.820071	12.441165	46.845828
4902.000000	11.640556	11.311318	59.304906
4903.000000	12.476515	12.234366	42.478835
4904.000000	10.625163	9.329071	42.580041
4905.000000	12.579288	11.258213	54.756345
4906.000000	10.820417	10.034987	42.233109
4907.000000	11.437087	11.063973	57.693510
4908.000000	10.999826	10.764580	60.610450
4909.000000	10.882591	10.532805	55.155515
4910.000000	11.613629	11.524642	84.552978
4911.000000	10.881732	11.440983	69.167101
4912.000000	12.614269	12.812955	54.642022
4913.000000	12.425017	12.590592	57.840177
4914.000000	11.719975	12.068189	53.390306
4915.000000	13.079795	14.016226	53.431086
4916.000000	12.131335	11.503179	55.241550
4917.000000	11.835389	11.100236	81.754870
4918.000000	11.825062	11.727668	37.520762
4919.000000	12.495656	11.665623	58.619659
4920.000000	12.356734	12.862893	73.540742
4921.000000	12.521112	11.931176	38.676133
4922.000000	13.197515	11.561300	71.659457
4923.000000	12.597336	13.211369	50.453585
4924.000000	13.184423	15.321428	67.782106
4925.000000	13.755944	14.350652	54.293103
4926.000000	14.441735	14.310094	98.332172
4927.000000	13.252461	13.396174	33.512407
4928.000000	14.473020	13.048407	68.361906
4929.000000	14.251532	14.054319	51.038167
4930.000000	14.655956	13.463060	59.974535
4931.000000	15.303834	14.783580	59.072554
4932.000000	13.803813	14.587447	47.494954
4933.000000	14.989585	12.946644	62.834861
4934.000000	13.493916	13.636625	70.495204
4935.000000	14.873602	15.847478	81.658929
4936.000000	15.190614	16.808646	70.461426
4937.000000	15.576755	16.354146	74.252369
4938.000000	15.288361	14.560472	77.848144
4939.000000	15.997544	15.237262	88.360415
4940.000000	17.276813	18.078164	57.549380
4941.000000	16.682813	17.865139	57.319330
4942.000000	17.038487	16.809900	79.460236
4943.000000	13.620467	13.654840	89.115200
4944.000000	16.543147	16.949380	75.416280
4945.000000	14.788607	14.789149	85.471234
4946.000000	15.517501	14.874334	75.890157
4947.000000	15.584238	14.064742	88.402948
4948.000000	13.797330	13.925770	93.317692
4949.000000	15.949134	15.576511	77.490192
4950.000000	15.483505	16.086248	66.570650
4951.000000	18.101587	17.712624	107.050138
4952.000000	17.108663	16.320061	67.626232
4953.000000	14.490165	13.452699	72.674774
4954.000000	17.972338	20.310887	130.677537
4955.000000	16.789019	16.117621	63.300792
4956.000000	17.333961	16.810734	64.508302
4957.000000	18.480332	17.496543	83.520910
4958.000000	16.465053	16.257535	73.141978
4959.000000	17.475236	17.050313	82.922565
4960.000000	17.513057	16.363154	87.714429
4961.000000	20.480120	17.922592	119.431475
4962.000000	19.650277	21.152772	76.220885
4963.000000	18.016353	16.324073	72.510802
4964.000000	16.641277	17.003103	75.684400
4965.000000	18.144306	17.691588	103.184071
4966.000000	19.137570	20.473800	92.056900
4967.000000	19.135458	17.733502	129.057879
4968.000000	19.648713	20.535316	86.449756
4969.000000	21.259106	20.478367	125.772361
4970.000000	20.354482	20.790910	107.456689
4971.000000	19.394467	16.357699	127.581610
4972.000000	18.279556	18.203429	122.278373
4973.000000	22.243226	20.979302	112.073331
4974.000000	22.641432	23.847900	146.203444
4975.000000	22.129842	22.565460	171.109052
4976.000000	24.381016	22.916506	103.722586
4977.000000	21.097284	21.877586	62.292903
4978.000000	21.791070	20.455577	110.311911
4979.000000	21.304185	22.530934	92.302673
4980.000000	23.624787	22.389749	128.828774
4981.000000	25.531169	24.014295	262.292580
4982.000000	24.221370	26.543446	103.476931
4983.000000	21.657842	20.186001	134.755487
4984.000000	22.347460	23.157458	97.372338
4985.000000	27.249168	31.489419	98.288594
4986.000000	25.235124	25.431742	113.206766
4987.000000	22.993151	21.159840	113.058003
4988.000000	25.543922	23.694569	150.841544
4989.000000	24.214809	23.395223	117.931132
4990.000000	24.667471	25.778530	121.058845
4991.000000	24.841100	24.207131	195.232438
4992.000000	21.766230	21.075013	124.979027
4993.000000	19.749047	20.253020	72.839473
4994.000000	23.382608	21.830504	139.692405
4995.000000	25.316353	27.217653	131.314153
4996.000000	27.805913	28.544736	166.915603
4997.000000	28.190930	28.657404	125.394779
4998.000000	30.613991	28.023100	174.108857
4999.000000	26.122083	26.096602	175.219047
5000.000000	29.033663	31.370010	105.660857
5001.000000	27.594254	27.376707	131.884382
5002.000000	26.726776	25.269805	220.641247
5003.000000	28.820747	26.300684	131.592717
5004.000000	26.081327	25.107550	119.888968
5005.000000	25.213701	25.091979	144.288461
5006.000000	24.577728	22.068460	141.363384
5007.000000	27.436464	26.757601	204.543774
5008.000000	22.525634	21.274955	219.636275
5009.000000	28.805699	27.290784	315.066913
5010.000000	28.779024	30.578361	158.796749
5011.000000	29.122355	30.826944	89.598300
5012.000000	29.217660	28.593953	103.226749
5013.000000	26.784777	26.481334	92.914644
5014.000000	30.803913	28.247556	135.114838
5015.000000	29.598240	27.095187	208.724585
5016.000000	29.887909	28.363645	102.773513
5017.000000	28.865295	29.097191	240.956561
5018.000000	28.201643	28.081472	120.728946
5019.000000	27.809734	27.852606	82.676383
5020.000000	26.991225	26.493345	199.913280
5021.000000	30.907590	27.009187	93.747930
5022.000000	26.690204	27.931964	114.746353
5023.000000	27.681036	28.639788	164.974796
5024.000000	30.956302	28.567079	116.292518
5025.000000	31.140064	30.416770	115.111310
5026.000000	30.017149	27.559061	160.417796
