# Nothing perticular

# Scan parameters: power 16.000000 dBm, bandwidth 1.500000 Hz
# Frequency [MHz]	avg noise	std noise	peak value
3900.000000	2.145044	2.597034	4.258389
3901.000000	0.330703	0.318060	1.918636
3902.000000	0.262207	0.270779	1.272745
3903.000000	0.329577	0.333726	1.111906
3904.000000	0.307960	0.300214	1.058861
3905.000000	0.322611	0.344152	0.844135
3906.000000	0.332875	0.353727	1.178208
3907.000000	0.362060	0.380230	1.051760
3908.000000	0.287104	0.370971	1.094115
3909.000000	0.283868	0.322758	1.298940
3910.000000	0.278861	0.312901	1.665197
3911.000000	0.294467	0.333536	0.951073
3912.000000	0.323558	0.330725	1.504059
3913.000000	0.320283	0.316227	2.854782
3914.000000	0.342371	0.366199	1.802202
3915.000000	0.354256	0.392651	1.428585
3916.000000	0.304680	0.291702	1.743662
3917.000000	0.320319	0.341961	2.217760
3918.000000	0.291340	0.286557	2.403346
3919.000000	0.301156	0.306608	1.791837
3920.000000	0.291893	0.312483	1.283469
3921.000000	0.306457	0.284995	1.373578
3922.000000	0.287907	0.350027	1.673926
3923.000000	0.294127	0.354989	1.583143
3924.000000	0.291296	0.299682	1.982053
3925.000000	0.320761	0.360372	2.372870
3926.000000	0.385048	0.418898	1.087133
3927.000000	0.327292	0.325772	2.370107
3928.000000	0.321755	0.346739	1.149070
3929.000000	0.368682	0.372507	1.468955
3930.000000	0.349476	0.390179	1.996757
3931.000000	0.343557	0.397496	1.462960
3932.000000	0.331283	0.420509	1.771915
3933.000000	0.288266	0.273019	3.449175
3934.000000	0.335329	0.377191	2.236135
3935.000000	0.332622	0.322371	1.440796
3936.000000	0.302064	0.305730	1.861921
3937.000000	0.291421	0.324612	2.012900
3938.000000	0.309888	0.299089	0.892346
3939.000000	0.339621	0.350381	1.233031
3940.000000	0.277008	0.286620	1.296535
3941.000000	0.311576	0.299465	2.214627
3942.000000	0.343891	0.316549	1.275881
3943.000000	0.318849	0.311605	2.082877
3944.000000	0.326747	0.394186	1.393281
3945.000000	0.333663	0.363579	1.353929
3946.000000	0.294817	0.342931	1.158188
3947.000000	0.367362	0.438584	1.573859
3948.000000	0.346403	0.363943	1.822934
3949.000000	0.366006	0.387405	2.154121
3950.000000	0.302392	0.303071	1.214695
3951.000000	0.315042	0.309554	0.895269
3952.000000	0.324640	0.361338	1.453309
3953.000000	0.318784	0.321463	1.907730
3954.000000	0.282614	0.299173	2.148904
3955.000000	0.336833	0.354544	1.581612
3956.000000	0.330281	0.338791	1.775665
3957.000000	0.302830	0.287332	1.085951
3958.000000	0.295407	0.304613	1.810145
3959.000000	0.329016	0.359157	1.159826
3960.000000	0.351060	0.326421	1.394714
3961.000000	0.341075	0.437151	1.623734
3962.000000	0.348586	0.403798	1.070418
3963.000000	0.292905	0.353756	1.328871
3964.000000	0.329582	0.348858	0.890859
3965.000000	0.469743	0.507326	2.175893
3966.000000	92.255183	90.858860	449.901345
3967.000000	230.255347	214.695235	844.561383
3968.000000	26.794275	30.068074	83.534281
3969.000000	8.069562	8.431238	30.494273
3970.000000	4.364174	4.513982	39.965448
3971.000000	2.984042	3.030305	12.280632
3972.000000	2.458715	2.586750	9.559367
3973.000000	2.022693	2.156982	21.212574
3974.000000	2.400216	2.240056	16.777102
3975.000000	2.218311	2.420042	7.438611
3976.000000	1.959564	1.799445	11.317628
3977.000000	1.904077	1.847594	8.189675
3978.000000	2.220920	2.318098	5.737754
3979.000000	1.962445	2.192764	11.284265
3980.000000	2.194851	1.983025	7.993931
3981.000000	1.935522	1.742747	13.770686
3982.000000	2.559271	2.584751	8.265835
3983.000000	2.806225	2.929992	11.798578
3984.000000	2.720859	2.513844	11.542203
3985.000000	2.542719	2.627574	8.128330
3986.000000	3.063665	3.491764	9.505701
3987.000000	3.369666	2.994798	20.646719
3988.000000	2.897439	2.896277	18.507178
3989.000000	3.769800	3.845578	12.772874
3990.000000	3.355270	3.169389	14.458412
3991.000000	4.179704	4.466752	21.888342
3992.000000	4.433008	4.483167	15.594929
3993.000000	3.570284	3.222086	16.534310
3994.000000	3.594788	3.415329	17.297735
3995.000000	3.961104	3.835857	9.539191
3996.000000	3.930955	4.184662	15.959429
3997.000000	4.398765	4.267017	22.835778
3998.000000	4.287370	4.133388	16.248112
3999.000000	4.701434	4.678868	25.881549
4000.000000	6.165122	6.907916	33.767077
4001.000000	5.008381	5.057906	23.867310
4002.000000	6.256192	5.471480	27.614302
4003.000000	6.715123	7.162559	38.381466
4004.000000	5.360193	5.604862	33.815032
4005.000000	7.083301	7.664794	46.323836
4006.000000	6.218839	6.055737	25.602985
4007.000000	6.557525	6.366250	37.553142
4008.000000	8.536510	8.631851	38.064234
4009.000000	6.362518	5.817625	18.233373
4010.000000	6.058247	5.828660	28.784156
4011.000000	6.317234	5.932835	28.333580
4012.000000	8.294768	8.273584	43.911169
4013.000000	6.493351	5.562374	20.286760
4014.000000	6.858965	6.373333	42.614651
4015.000000	9.123863	8.441231	27.624104
4016.000000	7.688209	8.074937	39.342318
4017.000000	9.954646	10.206614	40.837866
4018.000000	8.175743	7.955968	30.672001
4019.000000	6.640458	6.442227	38.378678
4020.000000	7.072893	7.369261	29.695596
4021.000000	8.806386	9.908011	51.203309
4022.000000	9.535897	8.287764	41.371897
4023.000000	7.331538	7.184371	46.290494
4024.000000	7.176765	7.277971	24.983511
4025.000000	7.559158	8.041534	23.159545
4026.000000	9.317223	9.366410	44.266243
4027.000000	9.349628	8.755337	25.934969
4028.000000	10.499227	11.393880	38.861608
4029.000000	10.185806	10.252650	56.290618
4030.000000	10.215175	10.961229	57.853747
4031.000000	8.603908	7.518983	33.382340
4032.000000	8.940727	9.176277	38.487379
4033.000000	10.284401	9.311892	59.281484
4034.000000	9.672781	10.049259	76.871576
4035.000000	8.967369	9.373975	58.074185
4036.000000	10.189126	9.615302	41.409968
4037.000000	7.376849	6.981300	47.841235
4038.000000	8.694051	8.961329	44.863306
4039.000000	9.726314	8.664033	40.014299
4040.000000	8.139939	7.216004	42.837208
4041.000000	9.094445	9.196826	39.077637
4042.000000	11.187102	10.673887	34.500187
4043.000000	6.584864	5.971724	40.008238
4044.000000	9.716479	8.528190	39.896760
4045.000000	10.157018	10.057206	49.001769
4046.000000	10.147623	10.583629	40.330001
4047.000000	7.722894	7.866682	38.790750
4048.000000	9.978834	9.293931	29.495780
4049.000000	8.175542	8.521315	35.706402
4050.000000	9.197161	10.013061	40.165654
4051.000000	6.024711	6.712027	26.129546
4052.000000	6.189833	6.047327	24.342696
4053.000000	6.312871	6.054886	20.778774
4054.000000	7.707632	7.528371	40.203836
4055.000000	6.486758	5.561032	27.653022
4056.000000	5.492777	6.166294	43.595580
4057.000000	4.746476	4.480143	20.406017
4058.000000	5.611168	5.307577	17.799627
4059.000000	4.565552	4.538720	23.393755
4060.000000	3.813562	3.972286	15.382225
4061.000000	5.196545	5.009290	24.970095
4062.000000	3.388764	3.285776	21.249511
4063.000000	4.541541	4.352620	26.908929
4064.000000	3.568782	3.297515	15.953899
4065.000000	2.965811	2.845282	22.475447
4066.000000	3.518522	3.396703	17.420612
4067.000000	2.985270	3.164243	16.386566
4068.000000	3.216558	3.007316	15.455439
4069.000000	2.710001	2.504812	11.835007
4070.000000	2.196534	1.959507	8.305333
4071.000000	2.282760	2.117890	12.506897
4072.000000	1.927098	2.083935	7.737530
4073.000000	2.337730	2.551351	7.076648
4074.000000	1.943022	1.914507	8.843028
4075.000000	1.552917	1.508605	5.731313
4076.000000	1.527880	1.632721	9.229431
4077.000000	1.077443	1.013635	4.490081
4078.000000	1.225751	1.107094	4.683301
4079.000000	1.149336	1.065838	5.086656
4080.000000	1.027224	0.959057	7.602993
4081.000000	0.967289	0.864240	3.646592
4082.000000	0.983963	1.156634	3.082912
4083.000000	0.766637	0.690785	2.317062
4084.000000	0.684911	0.649100	4.879135
4085.000000	0.694841	0.692740	3.045950
4086.000000	0.652196	0.603396	2.627301
4087.000000	0.627300	0.660245	4.638026
4088.000000	0.588022	0.584460	3.238292
4089.000000	0.664578	0.659863	2.964022
4090.000000	0.557468	0.559733	2.191586
4091.000000	0.624755	0.604226	2.341805
4092.000000	0.578947	0.504715	2.182769
4093.000000	0.566152	0.561220	2.273967
4094.000000	0.580853	0.595079	2.884716
4095.000000	0.539529	0.529272	2.426436
4096.000000	0.596661	0.576193	3.044420
4097.000000	0.595470	0.586858	2.374480
4098.000000	0.591365	0.577351	3.173430
4099.000000	0.747472	0.752384	2.021039
4100.000000	0.620476	0.632476	3.200268
4101.000000	0.665299	0.658724	2.484135
4102.000000	0.694522	0.700886	3.497551
4103.000000	0.773460	0.709194	1.901045
4104.000000	0.609775	0.543846	2.450153
4105.000000	0.673071	0.772090	3.070945
4106.000000	0.872999	0.909334	4.319735
4107.000000	0.877801	0.814154	3.445510
4108.000000	0.911018	0.960252	3.676369
4109.000000	0.860041	0.876496	3.298319
4110.000000	0.923453	0.930148	3.971203
4111.000000	1.006792	1.052927	3.788385
4112.000000	1.040005	1.044628	5.107941
4113.000000	1.063474	1.130313	6.880311
4114.000000	1.155335	1.080317	6.401958
4115.000000	1.150040	1.039242	3.578126
4116.000000	1.121025	1.127989	5.444259
4117.000000	1.281187	1.261953	4.397046
4118.000000	1.434450	1.284975	5.709718
4119.000000	1.448321	1.388357	4.640151
4120.000000	1.522676	1.815239	5.178757
4121.000000	1.881963	1.805227	7.803881
4122.000000	1.938129	1.865170	4.813666
4123.000000	2.019727	1.997154	10.874613
4124.000000	2.130442	2.145498	13.365945
4125.000000	2.092815	1.841285	5.773391
4126.000000	2.584180	2.665790	10.929516
4127.000000	2.680071	2.603999	17.367399
4128.000000	2.676508	2.918763	18.307271
4129.000000	2.894112	3.133854	15.590068
4130.000000	3.226534	3.238847	14.629514
4131.000000	3.683732	3.545180	23.677243
4132.000000	4.116199	4.454219	19.336646
4133.000000	4.087636	4.439400	23.080006
4134.000000	4.749452	4.307980	27.533118
4135.000000	5.021221	5.224598	16.016195
4136.000000	5.356385	5.153485	27.019277
4137.000000	6.146206	6.116891	23.896844
4138.000000	6.391200	6.051768	25.073038
4139.000000	7.244886	7.855599	21.957871
4140.000000	8.234914	7.867075	61.968265
4141.000000	9.155592	10.264300	43.043872
4142.000000	8.997813	8.722897	37.494987
4143.000000	11.127919	10.328982	55.635074
4144.000000	12.319236	11.613014	36.977088
4145.000000	13.390090	13.346251	64.071107
4146.000000	13.635708	15.351951	49.633790
4147.000000	14.334091	13.073548	63.634725
4148.000000	17.292108	18.613772	81.939754
4149.000000	21.163172	22.698638	120.272628
4150.000000	24.558766	25.651159	103.392772
4151.000000	27.498773	27.109789	105.901481
4152.000000	32.224272	30.819994	137.805100
4153.000000	42.597039	41.583068	133.478121
4154.000000	49.515316	47.461871	294.277871
4155.000000	61.097784	59.730171	331.219239
4156.000000	63.604987	62.646272	351.102884
4157.000000	87.582123	95.257716	439.548761
4158.000000	118.735749	104.888436	713.950814
4159.000000	115.189366	96.069486	588.764784
4160.000000	139.847215	141.076071	607.328471
4161.000000	144.985577	143.197086	953.912755
4162.000000	191.235690	192.193551	656.330898
4163.000000	224.261535	235.276911	1199.836290
4164.000000	226.975483	222.462597	1167.079937
4165.000000	240.346210	230.333677	964.539390
4166.000000	248.486579	218.375821	1172.931434
4167.000000	286.660009	267.581839	750.984895
4168.000000	314.316699	351.389153	1839.420805
4169.000000	371.667661	361.804044	1222.860457
4170.000000	320.548820	304.600674	1173.775725
4171.000000	313.672983	308.270301	1170.562026
4172.000000	234.335565	226.828777	761.751163
4173.000000	188.625192	184.945926	891.983900
4174.000000	163.118248	176.591036	461.152005
4175.000000	111.213042	121.074937	792.359776
4176.000000	92.443060	96.084025	312.764603
4177.000000	86.941772	87.967460	377.653068
4178.000000	73.695383	76.431383	337.990292
4179.000000	70.794930	74.361998	310.310000
4180.000000	67.838918	64.666421	288.189722
4181.000000	66.699687	66.569529	200.833510
4182.000000	64.202648	66.617505	272.737023
4183.000000	71.185933	65.559111	332.606789
4184.000000	87.891242	91.488025	384.130764
4185.000000	90.740719	84.331553	415.766115
4186.000000	101.506148	109.303819	647.262634
4187.000000	117.015905	118.093838	578.891651
4188.000000	114.538387	118.488638	369.508689
4189.000000	103.614394	104.604264	465.944508
4190.000000	90.398705	86.535005	444.009766
4191.000000	66.490852	71.318441	382.543939
4192.000000	48.010085	52.046179	395.583209
4193.000000	51.582124	59.698120	170.082528
4194.000000	33.822496	33.587907	163.342710
4195.000000	27.803758	27.129687	142.170717
4196.000000	22.859206	21.584284	139.835860
4197.000000	18.602455	19.000661	65.762235
4198.000000	9.966547	9.438724	52.156765
4199.000000	4.266072	3.865609	18.245288
4200.000000	0.608630	0.606218	3.773520
4201.000000	0.314026	0.353478	1.741660
4202.000000	0.311848	0.337286	1.645200
4203.000000	0.318498	0.324405	1.155940
4204.000000	0.353546	0.468935	1.646920
4205.000000	0.314053	0.348502	2.405521
4206.000000	0.302389	0.326772	1.193201
4207.000000	0.317145	0.379191	1.473200
4208.000000	0.301835	0.329360	1.278957
4209.000000	0.303205	0.312130	1.049394
4210.000000	0.339070	0.314630	1.075230
4211.000000	0.315772	0.326986	1.909315
4212.000000	0.315043	0.341809	1.107031
4213.000000	0.314483	0.348389	1.434537
4214.000000	0.302614	0.306076	1.494668
4215.000000	0.305998	0.381420	1.091089
4216.000000	0.324139	0.353542	1.216702
4217.000000	0.326710	0.340812	1.734965
4218.000000	0.323160	0.351392	0.966106
4219.000000	0.316400	0.377951	1.807127
4220.000000	0.329934	0.300208	1.348560
4221.000000	0.349950	0.374011	2.214668
4222.000000	0.290761	0.305923	1.363036
4223.000000	0.348030	0.349810	1.242325
4224.000000	0.339588	0.326049	1.715600
4225.000000	0.342683	0.389708	1.988737
4226.000000	0.416917	0.456719	1.711719
4227.000000	0.330482	0.370707	1.593588
4228.000000	0.352639	0.411344	1.591271
4229.000000	0.292927	0.321433	1.893685
4230.000000	0.319320	0.309989	1.514325
4231.000000	0.333421	0.386728	1.246991
4232.000000	0.341954	0.382442	1.223434
4233.000000	0.304458	0.377693	1.420502
4234.000000	0.330799	0.417886	1.714980
4235.000000	0.359654	0.391347	1.925120
4236.000000	0.344444	0.332243	1.785560
4237.000000	0.292795	0.294050	1.544413
4238.000000	0.356260	0.435733	2.517632
4239.000000	0.317945	0.299049	1.171932
4240.000000	0.357890	0.347497	1.351810
4241.000000	0.304687	0.307187	1.020282
4242.000000	0.327021	0.385655	1.550684
4243.000000	0.308451	0.342955	1.343912
4244.000000	0.327850	0.347840	0.835562
4245.000000	0.305332	0.303700	1.421845
4246.000000	0.305637	0.280775	2.014198
4247.000000	0.333398	0.348128	1.278731
4248.000000	0.347458	0.396231	2.871704
4249.000000	0.281661	0.260287	1.664412
4250.000000	0.314384	0.335776	2.545428
4251.000000	0.286804	0.348003	2.540754
4252.000000	0.281127	0.322301	1.214780
4253.000000	0.329950	0.321217	1.378744
4254.000000	0.339780	0.350683	1.267136
4255.000000	0.309658	0.422964	1.857005
4256.000000	0.361066	0.440259	1.429737
4257.000000	0.312643	0.349444	1.893544
4258.000000	0.331813	0.386445	1.780314
4259.000000	0.327167	0.350994	1.298222
4260.000000	0.362600	0.377136	1.494170
4261.000000	0.325004	0.376035	1.501216
4262.000000	0.347577	0.404998	1.238121
4263.000000	0.337337	0.342579	1.139981
4264.000000	0.330699	0.320208	1.486828
4265.000000	0.301613	0.298819	1.586846
4266.000000	0.358595	0.369999	2.717255
4267.000000	0.291621	0.269375	0.749353
4268.000000	0.309437	0.325531	2.237016
4269.000000	0.340309	0.423892	1.624251
4270.000000	0.334390	0.353529	1.148289
4271.000000	0.375298	0.466106	1.291727
4272.000000	0.319064	0.352234	1.549082
4273.000000	0.341064	0.379714	1.276784
4274.000000	0.369911	0.356503	2.017148
4275.000000	0.298451	0.395623	1.075052
4276.000000	0.332391	0.434539	1.962761
4277.000000	0.341920	0.356261	1.148044
4278.000000	0.319613	0.377576	1.406641
4279.000000	0.334323	0.341702	0.931989
4280.000000	0.340159	0.400038	1.450395
4281.000000	0.351343	0.365344	1.515452
4282.000000	0.297896	0.338516	1.282244
4283.000000	0.337011	0.428830	1.154837
4284.000000	0.310763	0.313289	2.429232
4285.000000	0.365600	0.358396	1.060733
4286.000000	0.357248	0.410912	1.260109
4287.000000	0.356199	0.391997	2.057541
4288.000000	0.292765	0.299503	1.199307
4289.000000	0.342801	0.373959	1.516674
4290.000000	0.358049	0.373104	1.934694
4291.000000	0.301164	0.331975	1.248932
4292.000000	0.307345	0.320145	1.413361
4293.000000	0.277166	0.286016	1.207020
4294.000000	0.322841	0.399803	1.914013
4295.000000	0.344367	0.330836	1.403794
4296.000000	0.303486	0.285429	1.334276
4297.000000	0.324934	0.330281	1.222753
4298.000000	0.346530	0.420116	1.184652
4299.000000	0.344499	0.346127	1.130095
4300.000000	0.329764	0.367333	1.698634
4301.000000	0.316061	0.324894	1.798036
4302.000000	0.354543	0.413160	1.450634
4303.000000	0.322457	0.339627	3.518712
4304.000000	0.327909	0.317550	2.017107
4305.000000	0.301612	0.283599	0.875213
4306.000000	0.290292	0.281330	1.902262
4307.000000	0.373134	0.424309	1.613592
4308.000000	0.289900	0.322978	1.684781
4309.000000	0.353515	0.394306	1.932850
4310.000000	0.366389	0.642974	0.986158
4311.000000	0.304305	0.352535	2.136260
4312.000000	0.315635	0.365057	2.010624
4313.000000	0.321096	0.356843	2.000192
4314.000000	0.305060	0.450628	1.340680
4315.000000	0.338907	0.375817	1.372893
4316.000000	0.333908	0.346748	3.893611
4317.000000	0.300347	0.289319	1.182389
4318.000000	0.341896	0.367433	1.266350
4319.000000	0.363196	0.380693	1.875342
4320.000000	0.334383	0.393064	1.738242
4321.000000	0.343116	0.374913	1.391870
4322.000000	0.346080	0.443930	2.272430
4323.000000	0.324639	0.335383	1.492500
4324.000000	0.382770	0.419203	1.225874
4325.000000	0.317434	0.309619	2.115790
4326.000000	0.332866	0.364688	1.919462
4327.000000	0.336930	0.329450	1.289627
4328.000000	0.324704	0.356694	1.476533
4329.000000	0.353491	0.368000	1.566140
4330.000000	0.337594	0.333269	1.953262
4331.000000	0.316143	0.382061	1.029110
4332.000000	0.342109	0.363945	1.998784
4333.000000	0.299508	0.368377	1.284928
4334.000000	0.331781	0.350152	0.904713
4335.000000	0.310517	0.331366	1.498530
4336.000000	0.357389	0.374116	1.357732
4337.000000	0.319845	0.319925	1.308167
4338.000000	0.358465	0.337924	1.122835
4339.000000	0.346182	0.529091	3.374598
4340.000000	0.359398	0.341281	1.607917
4341.000000	0.320886	0.342975	1.411325
4342.000000	0.304618	0.409621	1.192765
4343.000000	0.311881	0.318034	1.479403
4344.000000	0.294567	0.284589	3.420668
4345.000000	0.290426	0.278124	2.128005
4346.000000	0.321623	0.339284	1.061081
4347.000000	0.331448	0.319942	1.438636
4348.000000	0.314986	0.352704	1.919764
4349.000000	0.340481	0.330218	1.106357
4350.000000	0.320624	0.332084	1.046340
4351.000000	0.346869	0.340330	1.850985
4352.000000	0.291794	0.292872	1.351474
4353.000000	0.349020	0.432128	1.211751
4354.000000	0.312369	0.444426	1.305751
4355.000000	0.315912	0.326398	1.272752
4356.000000	0.316302	0.301659	1.452472
4357.000000	0.334814	0.316915	1.209115
4358.000000	0.314246	0.347964	1.344221
4359.000000	0.310354	0.322808	2.267481
4360.000000	0.282237	0.324533	1.243994
4361.000000	0.318688	0.367324	1.602935
4362.000000	0.303897	0.344284	1.232355
4363.000000	0.321889	0.354006	1.150311
4364.000000	0.308775	0.286522	1.914293
4365.000000	0.330836	0.325171	1.866237
4366.000000	0.301779	0.343127	1.381664
4367.000000	0.319298	0.445296	2.062832
4368.000000	0.332098	0.386986	1.465884
4369.000000	0.313753	0.324707	1.813738
4370.000000	0.336519	0.312592	1.440507
4371.000000	0.312952	0.374768	1.296265
4372.000000	0.357294	0.436340	2.470450
4373.000000	0.310601	0.323812	1.264777
4374.000000	0.293868	0.335190	1.997832
4375.000000	0.305006	0.363899	1.966057
4376.000000	0.297308	0.336539	2.002173
4377.000000	0.291697	0.286210	0.982834
4378.000000	0.305949	0.346532	2.113241
4379.000000	0.314274	0.328459	1.477403
4380.000000	0.297379	0.351651	1.534738
4381.000000	0.372032	0.370528	1.103902
4382.000000	0.349493	0.416622	1.154386
4383.000000	0.331634	0.375202	1.900934
4384.000000	0.337883	0.357207	2.628634
4385.000000	0.273681	0.286360	2.330287
4386.000000	0.332097	0.362041	3.095173
4387.000000	0.332457	0.354137	2.563865
4388.000000	0.330323	0.385175	4.234922
4389.000000	0.340527	0.371764	1.774405
4390.000000	0.331684	0.359399	3.830140
4391.000000	0.321956	0.311878	3.991649
4392.000000	0.287578	0.316982	3.515886
4393.000000	0.295856	0.348469	2.839511
4394.000000	0.311999	0.330183	4.122601
4395.000000	0.325410	0.351473	1.635418
4396.000000	0.318128	0.286444	1.481332
4397.000000	0.325959	0.317051	1.347373
4398.000000	0.288487	0.318248	3.241126
4399.000000	0.306584	0.272309	1.556958
4400.000000	0.306608	0.310235	2.073167
4401.000000	0.356190	0.366700	1.059631
4402.000000	0.342984	0.409719	1.132968
4403.000000	0.297199	0.331548	1.771777
4404.000000	0.343807	0.324463	1.383934
4405.000000	0.324576	0.321530	1.329544
4406.000000	0.309204	0.445175	1.461432
4407.000000	0.335789	0.380842	1.784400
4408.000000	0.349364	0.405574	1.152763
4409.000000	0.333810	0.328767	1.101087
4410.000000	0.375700	0.475939	1.412406
4411.000000	0.330950	0.358634	2.014854
4412.000000	0.331469	0.351214	1.884837
4413.000000	0.357568	0.350056	1.424699
4414.000000	0.311223	0.296767	1.446274
4415.000000	0.289278	0.392907	1.860830
4416.000000	0.307273	0.388791	1.595926
4417.000000	0.320986	0.304620	1.192163
4418.000000	0.311337	0.290239	1.212699
4419.000000	0.298652	0.350489	1.154935
4420.000000	0.319577	0.325563	2.797992
4421.000000	0.311803	0.336893	1.154622
4422.000000	0.292570	0.295592	1.598394
4423.000000	0.331264	0.392706	1.635124
4424.000000	0.335835	0.441427	1.728930
4425.000000	0.308226	0.342505	2.111624
4426.000000	0.357966	0.347476	1.336421
4427.000000	0.354949	0.325850	2.079596
4428.000000	0.295122	0.312662	1.207346
4429.000000	0.324389	0.352978	1.852690
4430.000000	0.311106	0.308610	0.983581
4431.000000	0.335513	0.388981	1.386969
4432.000000	0.328675	0.333107	1.343594
4433.000000	0.331958	0.292473	1.893459
4434.000000	0.297254	0.316406	1.182725
4435.000000	0.335518	0.302679	1.862841
4436.000000	0.296205	0.308655	2.028070
4437.000000	0.245284	0.229831	1.409417
4438.000000	0.338080	0.376711	0.778205
4439.000000	0.288057	0.273614	1.905742
4440.000000	0.299195	0.332418	1.488740
4441.000000	0.299446	0.285134	1.602552
4442.000000	0.355600	0.388476	1.877228
4443.000000	0.340468	0.375283	1.575808
4444.000000	0.279607	0.266896	1.629868
4445.000000	0.310503	0.281858	1.284473
4446.000000	0.294463	0.273058	1.219992
4447.000000	0.292200	0.304862	0.899489
4448.000000	0.305508	0.307174	1.269672
4449.000000	0.293396	0.302861	1.944428
4450.000000	0.324747	0.350680	1.568914
4451.000000	0.331473	0.315163	1.224151
4452.000000	0.323035	0.304128	1.177215
4453.000000	0.327547	0.427550	1.659422
4454.000000	0.338310	0.360321	2.266264
4455.000000	0.297201	0.330205	1.199488
4456.000000	0.339717	0.419012	0.999373
4457.000000	0.343121	0.377206	1.302091
4458.000000	0.319902	0.304701	1.197151
4459.000000	0.343468	0.509997	0.966258
4460.000000	0.314511	0.284149	1.798340
4461.000000	0.299554	0.279695	1.697028
4462.000000	0.325818	0.386957	1.297820
4463.000000	0.310231	0.393810	1.292202
4464.000000	0.318251	0.344128	1.343211
4465.000000	0.303768	0.327551	1.701498
4466.000000	0.296457	0.290150	3.012963
4467.000000	0.294633	0.369176	1.633484
4468.000000	0.335698	0.402557	1.585966
4469.000000	0.340242	0.411757	2.271309
4470.000000	0.313334	0.307192	2.780382
4471.000000	0.368468	0.409481	2.546766
4472.000000	0.497486	0.494663	1.807880
4473.000000	2.298126	2.448149	9.126775
4474.000000	743.715130	653.078372	3015.023662
4475.000000	62.636682	69.539326	217.699268
4476.000000	24.801640	25.658377	108.315321
4477.000000	12.295754	13.062629	70.141532
4478.000000	7.753793	7.214211	21.715453
4479.000000	4.831407	4.662497	17.590230
4480.000000	3.376712	3.441250	11.187126
4481.000000	1.987428	2.280802	13.853588
4482.000000	1.801132	1.597434	9.897577
4483.000000	1.308081	1.361651	5.944167
4484.000000	1.070539	1.134509	3.830909
4485.000000	0.744075	0.755697	5.769209
4486.000000	0.914578	0.934112	3.847576
4487.000000	0.698738	0.676871	2.890048
4488.000000	0.787875	0.771833	2.792000
4489.000000	0.669032	0.660760	3.833970
4490.000000	0.651464	0.664243	3.297802
4491.000000	0.689152	0.858718	2.516068
4492.000000	0.634214	0.606034	3.432194
4493.000000	0.623344	0.665951	3.047297
4494.000000	0.579969	0.550220	3.168343
4495.000000	0.589203	0.553884	2.208281
4496.000000	0.533655	0.486460	2.550008
4497.000000	0.517189	0.585733	3.424086
4498.000000	0.542438	0.564854	2.385845
4499.000000	0.589771	0.536961	5.223206
4500.000000	0.531408	0.550922	3.110611
4501.000000	0.523183	0.592248	1.889195
4502.000000	0.472565	0.419555	2.492462
4503.000000	0.486328	0.458419	2.004883
4504.000000	0.435270	0.397785	1.753646
4505.000000	0.475950	0.584950	1.785816
4506.000000	0.523080	0.494868	2.522314
4507.000000	0.453389	0.531399	4.570997
4508.000000	0.509207	0.545927	2.664327
4509.000000	0.420496	0.361980	1.464178
4510.000000	0.413523	0.422907	2.206741
4511.000000	0.479658	0.488622	1.918540
4512.000000	0.400259	0.478079	3.803997
4513.000000	0.441384	0.487653	2.792002
4514.000000	0.458283	0.432590	1.157675
4515.000000	0.418438	0.370588	1.423446
4516.000000	0.418543	0.454277	1.581767
4517.000000	0.417341	0.387210	1.676157
4518.000000	0.430585	0.452921	1.671127
4519.000000	0.382302	0.348058	1.510505
4520.000000	0.387915	0.349977	3.432697
4521.000000	0.407487	0.415611	1.931013
4522.000000	0.354456	0.382414	1.472548
4523.000000	0.394729	0.403319	1.069236
4524.000000	0.474441	0.528788	1.330642
4525.000000	0.376075	0.351623	1.453632
4526.000000	0.372839	0.358595	1.767251
4527.000000	0.391695	0.471299	2.720527
4528.000000	0.444860	0.439593	1.767376
4529.000000	0.427145	0.451792	2.557582
4530.000000	0.444194	0.455385	2.248659
4531.000000	0.407955	0.395760	1.354045
4532.000000	0.413657	0.420594	1.427752
4533.000000	0.429134	0.452443	2.130033
4534.000000	0.394373	0.396169	1.450269
4535.000000	0.463877	0.441904	1.752757
4536.000000	0.424495	0.421711	2.853147
4537.000000	0.371374	0.382329	2.300087
4538.000000	0.458442	0.434412	2.591563
4539.000000	0.422811	0.380169	1.748776
4540.000000	0.410476	0.391328	2.024459
4541.000000	0.452322	0.457562	1.509920
4542.000000	0.550854	0.513715	1.913922
4543.000000	0.519869	0.560694	1.440434
4544.000000	0.507966	0.551875	2.205603
4545.000000	0.489317	0.445473	3.718971
4546.000000	0.470454	0.513318	2.568676
4547.000000	0.473774	0.473766	1.985038
4548.000000	0.476745	0.442199	1.610157
4549.000000	0.546735	0.511566	1.644433
4550.000000	0.545747	0.573601	2.812039
4551.000000	0.417220	0.403286	3.005683
4552.000000	0.485447	0.454125	1.842065
4553.000000	0.474031	0.478230	2.935889
4554.000000	0.465490	0.447673	1.730749
4555.000000	0.383749	0.368506	2.228854
4556.000000	0.470823	0.462121	3.003649
4557.000000	0.361985	0.354496	2.575881
4558.000000	0.419702	0.485643	2.503414
4559.000000	0.369986	0.367140	1.817200
4560.000000	0.421806	0.473570	1.174567
4561.000000	0.368545	0.352535	2.170401
4562.000000	0.403279	0.420951	1.604747
4563.000000	0.392145	0.381563	1.815580
4564.000000	0.360575	0.402367	1.598869
4565.000000	0.362970	0.378499	2.515020
4566.000000	0.374104	0.371693	1.749279
4567.000000	0.376343	0.384947	2.331025
4568.000000	0.404832	0.459148	1.371551
4569.000000	0.367964	0.397611	1.701272
4570.000000	0.341065	0.403537	1.465322
4571.000000	0.369568	0.397228	1.546566
4572.000000	0.308973	0.321295	1.707045
4573.000000	0.317583	0.290191	1.486131
4574.000000	0.339068	0.340157	1.399265
4575.000000	0.353352	0.377708	1.219541
4576.000000	0.383652	0.432148	2.083896
4577.000000	0.324528	0.310969	1.805573
4578.000000	0.358457	0.445390	2.616843
4579.000000	0.396196	0.528695	1.672067
4580.000000	0.332655	0.346214	1.854113
4581.000000	0.338594	0.325806	1.854687
4582.000000	0.339579	0.337104	2.261655
4583.000000	0.339790	0.341844	1.216255
4584.000000	0.355922	0.377557	2.227679
4585.000000	0.371482	0.384972	1.707486
4586.000000	0.338112	0.365535	2.558997
4587.000000	0.349078	0.332342	1.921201
4588.000000	0.383448	0.385627	1.866952
4589.000000	0.507949	0.509134	1.406366
4590.000000	0.462312	0.437199	1.913664
4591.000000	0.485423	0.412747	2.803392
4592.000000	0.438014	0.435458	2.454853
4593.000000	0.428806	0.432942	3.333845
4594.000000	0.481256	0.525882	2.109748
4595.000000	0.448582	0.464763	1.221997
4596.000000	0.373999	0.400305	2.103077
4597.000000	0.399544	0.403566	1.311628
4598.000000	0.349869	0.348613	1.254329
4599.000000	0.344845	0.358792	1.847179
4600.000000	0.385242	0.376397	1.947209
4601.000000	0.359621	0.429713	1.324303
4602.000000	0.341699	0.349215	1.117781
4603.000000	0.342346	0.347540	1.164901
4604.000000	0.298277	0.284547	1.503579
4605.000000	0.381101	0.408810	2.421898
4606.000000	0.350242	0.365511	1.619567
4607.000000	0.337561	0.396669	1.669763
4608.000000	0.265376	0.284058	1.789097
4609.000000	0.299366	0.324425	1.197958
4610.000000	0.335881	0.344496	1.437619
4611.000000	0.313100	0.306028	1.329571
4612.000000	0.287282	0.274175	1.880529
4613.000000	0.287730	0.258406	1.508840
4614.000000	0.345066	0.336455	0.911768
4615.000000	0.338869	0.352628	1.576088
4616.000000	0.313988	0.331422	1.655192
4617.000000	0.373580	0.382787	1.516160
4618.000000	0.350268	0.370257	1.644474
4619.000000	0.335142	0.371199	1.562281
4620.000000	0.302643	0.341626	1.218934
4621.000000	0.334218	0.312463	1.351892
4622.000000	0.315173	0.310550	1.748188
4623.000000	0.356072	0.396281	1.655899
4624.000000	0.340971	0.342697	0.829731
4625.000000	0.323703	0.342743	1.515470
4626.000000	0.313925	0.348136	1.186567
4627.000000	0.271986	0.259499	1.362521
4628.000000	0.331310	0.346213	1.460199
4629.000000	0.311352	0.323039	1.823022
4630.000000	0.313491	0.362117	0.947680
4631.000000	0.316641	0.362756	1.766344
4632.000000	0.354732	0.354894	1.416659
4633.000000	0.360092	0.417079	1.512524
4634.000000	0.342435	0.356787	1.246313
4635.000000	0.326558	0.362486	1.310211
4636.000000	0.352380	0.362302	1.182921
4637.000000	0.341074	0.346789	1.767584
4638.000000	0.332117	0.359048	1.729534
4639.000000	0.319312	0.351632	1.380319
4640.000000	0.358853	0.360034	1.517907
4641.000000	0.341028	0.330373	1.619302
4642.000000	0.397054	0.403892	1.785221
4643.000000	0.360120	0.381271	1.435902
4644.000000	0.394400	0.393690	1.793318
4645.000000	0.304676	0.316705	1.553483
4646.000000	0.412600	0.400336	1.255337
4647.000000	0.362925	0.372563	1.336142
4648.000000	0.351551	0.325322	1.275671
4649.000000	0.353955	0.334485	1.962360
4650.000000	0.400441	0.422098	2.735939
4651.000000	0.357109	0.386630	1.776445
4652.000000	0.380891	0.439439	1.783684
4653.000000	0.390409	0.416819	2.028664
4654.000000	0.343841	0.409292	1.635800
4655.000000	0.354840	0.421158	2.047055
4656.000000	0.372162	0.413433	1.900784
4657.000000	0.417468	0.428306	2.223085
4658.000000	0.398825	0.443136	1.577859
4659.000000	0.381209	0.423222	1.968983
4660.000000	0.370696	0.344802	1.620286
4661.000000	0.362923	0.421807	3.691738
4662.000000	0.352197	0.380987	1.662712
4663.000000	0.381792	0.414714	2.816554
4664.000000	0.405531	0.384818	1.660802
4665.000000	0.425826	0.400875	2.411272
4666.000000	0.375127	0.372271	3.729316
4667.000000	0.413525	0.405635	1.919000
4668.000000	0.397980	0.356137	1.655822
4669.000000	0.379925	0.411716	1.701236
4670.000000	0.434210	0.423171	1.444267
4671.000000	0.435043	0.428552	3.092555
4672.000000	0.386778	0.365144	1.911499
4673.000000	0.401690	0.439997	2.202429
4674.000000	0.360164	0.364202	2.979213
4675.000000	0.423894	0.429105	1.783008
4676.000000	0.435095	0.475881	2.012285
4677.000000	0.471710	0.409434	1.715434
4678.000000	0.457758	0.508330	1.534085
4679.000000	0.415875	0.424626	2.020636
4680.000000	0.428325	0.483118	2.355990
4681.000000	0.437771	0.414797	2.322213
4682.000000	0.370777	0.383822	3.107107
4683.000000	0.483286	0.533552	1.803925
4684.000000	0.453685	0.448630	2.213016
4685.000000	0.512570	0.555237	2.634021
4686.000000	0.481272	0.564354	1.820827
4687.000000	0.461737	0.491566	3.851416
4688.000000	0.471357	0.474339	2.366083
4689.000000	0.476859	0.500433	2.755294
4690.000000	0.461024	0.457105	2.529777
4691.000000	0.466574	0.464417	2.132866
4692.000000	0.499620	0.531924	2.726923
4693.000000	0.488693	0.499505	3.203936
4694.000000	0.487139	0.536010	1.973975
4695.000000	0.584929	0.599299	2.266849
4696.000000	0.513309	0.605239	2.250392
4697.000000	0.589492	0.612791	1.924177
4698.000000	0.803195	0.830163	4.319915
4699.000000	0.469296	0.521173	2.500768
4700.000000	0.712657	0.718615	3.040675
4701.000000	0.979986	0.901040	5.862987
4702.000000	0.585557	0.613798	3.886592
4703.000000	0.537403	0.513325	2.749039
4704.000000	0.554322	0.534761	3.979700
4705.000000	0.591355	0.630621	3.355867
4706.000000	0.576874	0.589343	2.625651
4707.000000	0.554460	0.554055	4.341079
4708.000000	0.554287	0.622709	2.839476
4709.000000	0.510540	0.486661	2.552652
4710.000000	0.499053	0.463265	3.025931
4711.000000	0.652346	0.655305	4.566020
4712.000000	0.633682	0.601693	1.630985
4713.000000	0.560710	0.481287	3.291340
4714.000000	0.562957	0.515502	3.950200
4715.000000	0.609447	0.611812	2.443397
4716.000000	0.627945	0.636186	4.544673
4717.000000	0.647054	0.740595	2.747013
4718.000000	0.727594	0.772693	3.206219
4719.000000	0.798657	0.756936	3.713596
4720.000000	0.772366	0.745793	3.580242
4721.000000	0.809493	0.763077	2.830292
4722.000000	1.046857	1.068879	4.442745
4723.000000	1.059989	1.046565	3.951861
4724.000000	1.228022	1.295825	4.132902
4725.000000	1.302772	1.413561	6.572106
4726.000000	1.526638	1.669646	6.729067
4727.000000	1.721829	1.633805	6.442778
4728.000000	2.031026	2.035353	7.413616
4729.000000	1.849205	2.035305	8.813192
4730.000000	2.020861	2.030265	12.966653
4731.000000	2.525536	2.584798	11.668849
4732.000000	2.309939	2.089897	11.982855
4733.000000	2.581928	2.897869	8.609866
4734.000000	2.574363	2.415867	12.060910
4735.000000	2.755122	3.041786	14.257601
4736.000000	2.940958	2.545235	11.593559
4737.000000	2.658137	2.460137	15.929307
4738.000000	3.383216	3.583076	19.043678
4739.000000	3.382385	3.301022	13.930654
4740.000000	3.700047	3.628941	12.876771
4741.000000	3.366418	2.949711	17.989741
4742.000000	3.861820	3.878578	15.446223
4743.000000	3.674681	3.472501	16.571517
4744.000000	3.927293	3.756098	12.218480
4745.000000	4.504988	4.187008	13.333054
4746.000000	3.857274	3.521664	16.531707
4747.000000	4.405904	4.642335	24.776619
4748.000000	4.593105	4.269666	17.687829
4749.000000	5.299830	5.031052	27.781294
4750.000000	5.842854	5.741944	19.708590
4751.000000	5.868021	5.698985	32.008259
4752.000000	5.867160	6.151393	26.430373
4753.000000	5.699318	5.814440	45.737906
4754.000000	6.903757	7.241056	29.055862
4755.000000	6.216796	6.062965	36.442412
4756.000000	7.940639	7.499544	35.715003
4757.000000	9.731014	9.738699	46.442787
4758.000000	10.249180	9.571018	36.721459
4759.000000	12.677234	14.275123	57.317985
4760.000000	15.281993	12.969868	63.878821
4761.000000	18.890804	22.181252	83.860382
4762.000000	27.609903	24.554425	78.321194
4763.000000	41.903848	44.546590	190.487027
4764.000000	77.166568	75.032315	254.711181
4765.000000	111.206381	128.536550	602.203916
4766.000000	11.597410	10.999237	73.441716
4767.000000	1.956670	1.677706	13.342403
4768.000000	0.818407	0.825383	2.783318
4769.000000	0.484858	0.507310	2.072241
4770.000000	0.376052	0.385292	2.632326
4771.000000	0.393863	0.408191	2.825608
4772.000000	0.322708	0.280985	2.094641
4773.000000	0.325939	0.316420	2.046888
4774.000000	0.308153	0.362578	1.919640
4775.000000	0.329730	0.302870	1.003468
4776.000000	0.277557	0.245348	1.318254
4777.000000	0.322767	0.282509	1.295080
4778.000000	0.357259	0.335670	1.163043
4779.000000	0.312128	0.373670	0.955661
4780.000000	0.344949	0.329599	2.326201
4781.000000	0.356042	0.355081	1.677358
4782.000000	0.334462	0.321803	1.060364
4783.000000	0.334571	0.381436	1.622632
4784.000000	0.314845	0.311493	1.633115
4785.000000	0.323330	0.375334	2.046822
4786.000000	0.312386	0.305892	1.424197
4787.000000	0.370445	0.450574	2.480939
4788.000000	0.332508	0.412553	4.033150
4789.000000	0.330654	0.462994	1.602287
4790.000000	0.304338	0.374872	2.909330
4791.000000	0.323889	0.350926	2.114408
4792.000000	0.373056	0.529611	1.383444
4793.000000	0.345563	0.298336	1.319994
4794.000000	0.358361	0.410729	2.124802
4795.000000	0.325808	0.591485	2.480002
4796.000000	0.286051	0.315476	1.561357
4797.000000	0.297179	0.357745	2.058847
4798.000000	0.289413	0.374589	1.282492
4799.000000	0.331784	0.348394	1.615439
4800.000000	0.322045	0.319930	1.412280
4801.000000	0.332018	0.401712	1.185248
4802.000000	0.316557	0.321304	1.270467
4803.000000	0.308589	0.372912	2.806093
4804.000000	0.346533	0.340480	2.559131
4805.000000	0.307590	0.323623	1.879237
4806.000000	0.319017	0.329252	3.729444
4807.000000	0.322626	0.306118	2.550645
4808.000000	0.316331	0.365032	1.752300
4809.000000	0.364434	0.403944	1.314027
4810.000000	0.328586	0.368960	1.885517
4811.000000	0.275042	0.307029	1.781605
4812.000000	0.346792	0.405057	2.083664
4813.000000	0.335225	0.333600	2.373992
4814.000000	0.281505	0.269441	1.644256
4815.000000	0.322069	0.342693	1.630591
4816.000000	0.336780	0.381760	1.104577
4817.000000	0.365370	0.401700	2.684404
4818.000000	0.349495	0.424985	2.812467
4819.000000	0.317842	0.368637	1.846717
4820.000000	0.317075	0.471620	2.972992
4821.000000	0.319884	0.356005	1.710118
4822.000000	0.328391	0.326846	1.760414
4823.000000	0.350920	0.417672	2.354005
4824.000000	0.355336	0.441792	1.682368
4825.000000	0.367734	0.374862	1.690956
4826.000000	0.357170	0.349733	1.292270
4827.000000	0.362345	0.357471	1.533023
4828.000000	0.334642	0.328680	1.786359
4829.000000	0.311560	0.360528	1.170284
4830.000000	0.367793	0.364712	1.713797
4831.000000	0.443968	0.476321	2.698655
4832.000000	0.517604	0.540913	2.526549
4833.000000	0.398864	0.436028	3.789335
4834.000000	0.455605	0.467963	2.652588
4835.000000	0.423287	0.476845	1.948347
4836.000000	0.392779	0.426105	1.579841
4837.000000	0.352753	0.374396	1.597326
4838.000000	0.360629	0.366802	1.930946
4839.000000	0.336760	0.423839	1.383166
4840.000000	0.339815	0.310625	1.269795
4841.000000	0.323251	0.313321	2.360311
4842.000000	0.321111	0.312197	1.264253
4843.000000	0.307802	0.326725	1.070613
4844.000000	0.307276	0.417823	1.720441
4845.000000	0.298594	0.421435	1.416112
4846.000000	0.296313	0.304488	1.868222
4847.000000	0.299763	0.260485	0.969554
4848.000000	0.313539	0.322339	1.697259
4849.000000	0.324940	0.314569	1.793992
4850.000000	0.291496	0.289501	1.544096
4851.000000	0.323913	0.330912	1.670976
4852.000000	0.299451	0.286535	1.454073
4853.000000	0.348300	0.361582	0.987376
4854.000000	0.329395	0.383284	2.295146
4855.000000	0.247229	0.249208	2.067265
4856.000000	0.359841	0.423757	1.862550
4857.000000	0.316447	0.294750	1.232356
4858.000000	0.329079	0.350622	1.386424
4859.000000	0.333425	0.411966	1.299597
4860.000000	0.327019	0.320050	2.362450
4861.000000	0.348087	0.328712	1.288678
4862.000000	0.318408	0.317694	1.300937
4863.000000	0.323910	0.325338	1.133343
4864.000000	0.303780	0.283252	1.210509
4865.000000	0.272949	0.256847	1.226568
4866.000000	0.280409	0.333095	1.341878
4867.000000	0.293687	0.276916	1.053959
4868.000000	0.304701	0.365323	1.342416
4869.000000	0.300524	0.338536	2.163499
4870.000000	0.326273	0.372739	1.219835
4871.000000	0.251802	0.242221	1.311665
4872.000000	0.314721	0.288685	1.550543
4873.000000	0.310486	0.304658	1.378002
4874.000000	0.305545	0.304052	2.083553
4875.000000	0.322222	0.329426	1.868995
4876.000000	0.327992	0.344917	1.135581
4877.000000	0.311680	0.288901	1.605568
4878.000000	0.342898	0.321283	1.615237
4879.000000	0.284631	0.293879	0.874855
4880.000000	0.331493	0.366839	1.196773
4881.000000	0.300763	0.316695	1.336097
4882.000000	0.295640	0.271916	1.147748
4883.000000	0.296142	0.316715	2.214936
4884.000000	0.278622	0.294366	3.367686
4885.000000	0.316950	0.310857	1.240662
4886.000000	0.357364	0.364189	1.329852
4887.000000	0.330376	0.322230	1.626207
4888.000000	0.292415	0.295352	1.388787
4889.000000	0.341718	0.346997	1.947219
4890.000000	0.312597	0.324933	2.093338
4891.000000	0.314685	0.355793	1.883124
4892.000000	0.327662	0.360333	1.009329
4893.000000	0.308488	0.327115	1.064945
4894.000000	0.280887	0.290046	2.023035
4895.000000	0.338182	0.320585	1.957767
4896.000000	0.306643	0.324828	1.987134
4897.000000	0.337042	0.320193	2.710729
4898.000000	0.257855	0.282481	1.828582
4899.000000	0.302992	0.324140	1.163937
4900.000000	0.304601	0.295560	1.364841
4901.000000	0.320761	0.287997	1.458175
4902.000000	0.319661	0.312805	1.057681
4903.000000	0.330775	0.321829	1.593390
4904.000000	0.312887	0.307210	1.946289
4905.000000	0.291987	0.315709	1.308473
4906.000000	0.324325	0.335556	2.067090
4907.000000	0.304554	0.299481	1.269351
4908.000000	0.310833	0.339030	1.318953
4909.000000	0.294432	0.257882	1.653355
4910.000000	0.296416	0.301858	1.410558
4911.000000	0.286562	0.303757	3.377812
4912.000000	0.298575	0.308179	1.783362
4913.000000	0.296600	0.299495	1.350070
4914.000000	0.312270	0.306935	1.698653
4915.000000	0.297205	0.329593	1.096809
4916.000000	0.298394	0.294166	1.438685
4917.000000	0.311973	0.304383	1.948187
4918.000000	0.318142	0.334779	1.929614
4919.000000	0.320472	0.338428	1.760507
4920.000000	0.289700	0.283122	1.178705
4921.000000	0.296862	0.294810	1.426427
4922.000000	0.337933	0.326116	1.185160
4923.000000	0.331490	0.352331	1.070503
4924.000000	0.322956	0.326843	1.234151
4925.000000	0.306994	0.334187	0.840134
4926.000000	0.315242	0.365177	1.867346
4927.000000	0.338442	0.394069	2.359941
4928.000000	0.322601	0.323201	1.901166
4929.000000	0.325325	0.333951	1.119332
4930.000000	0.260814	0.261798	4.295297
4931.000000	0.317083	0.342137	1.961358
4932.000000	0.305825	0.317210	2.114381
4933.000000	0.345737	0.372943	1.382112
4934.000000	0.330440	0.392272	0.775115
4935.000000	0.356238	0.381106	2.195114
4936.000000	0.304906	0.329644	3.537591
4937.000000	0.325284	0.329392	1.703384
4938.000000	0.373822	0.332503	2.673317
4939.000000	0.328692	0.335630	1.291811
4940.000000	0.342052	0.376452	1.313703
4941.000000	0.328498	0.378371	1.296160
4942.000000	0.285126	0.310953	2.462639
4943.000000	0.289365	0.285937	1.625484
4944.000000	0.338147	0.386596	1.784796
4945.000000	0.294884	0.313951	1.982770
4946.000000	0.331795	0.322526	1.375901
4947.000000	0.303095	0.363177	1.509615
4948.000000	0.309322	0.303399	1.622773
4949.000000	0.308454	0.355482	1.406896
4950.000000	0.280285	0.256329	2.303523
4951.000000	0.301178	0.317537	1.549214
4952.000000	0.316085	0.329761	1.330988
4953.000000	0.295732	0.270942	1.275103
4954.000000	0.351370	0.347808	1.057596
4955.000000	0.343338	0.389915	1.049581
4956.000000	0.259416	0.254291	1.274534
4957.000000	0.341295	0.355581	1.572062
4958.000000	0.348418	0.358823	1.372665
4959.000000	0.312501	0.314423	1.739613
4960.000000	0.317590	0.367660	1.060369
4961.000000	0.295553	0.322246	1.278472
4962.000000	0.315476	0.333510	2.374955
4963.000000	0.276085	0.315393	1.574360
4964.000000	0.289095	0.320603	1.751540
4965.000000	0.344433	0.346215	1.675063
4966.000000	0.300802	0.294275	1.850327
4967.000000	0.303702	0.296956	2.393466
4968.000000	0.329008	0.327003	1.580161
4969.000000	0.345974	0.400200	1.717890
4970.000000	0.310440	0.325177	1.483886
4971.000000	0.366368	0.396966	0.969357
4972.000000	0.329401	0.345258	1.528480
4973.000000	0.324455	0.332863	1.281519
4974.000000	0.311796	0.379251	2.767427
4975.000000	0.344786	0.340426	1.193249
4976.000000	0.273375	0.371604	1.280352
4977.000000	0.286528	0.288056	1.205538
4978.000000	0.301375	0.287326	1.075730
4979.000000	0.312144	0.294434	1.116493
4980.000000	0.287086	0.264838	2.921748
4981.000000	0.289686	0.275159	1.913895
4982.000000	0.285157	0.296796	1.147960
4983.000000	0.303534	0.273675	1.553754
4984.000000	0.307427	0.344142	1.959972
4985.000000	0.307103	0.339424	1.429102
4986.000000	0.314598	0.317374	2.061739
4987.000000	0.320269	0.322113	2.698913
4988.000000	0.300357	0.347383	1.948944
4989.000000	0.314478	0.408313	1.643384
4990.000000	0.296766	0.340257	1.587979
4991.000000	0.264868	0.303406	1.998435
4992.000000	0.288551	0.274001	2.266456
4993.000000	0.300580	0.305787	3.445023
4994.000000	0.372978	0.403014	1.501527
4995.000000	0.314904	0.316385	1.353405
4996.000000	0.322072	0.300367	1.414668
4997.000000	0.309940	0.354736	1.976963
4998.000000	0.324574	0.367453	1.732716
4999.000000	0.313871	0.292191	2.183960
5000.000000	0.333726	0.338288	2.107653
# 

# Scan parameters: power 16.000000 dBm, bandwidth 1.500000 Hz
# Frequency [MHz]	avg noise	std noise	peak value
3900.000000	0.305872	0.280059	1.679527
3901.000000	0.302056	0.317523	1.416610
3902.000000	0.300903	0.283000	1.266949
3903.000000	0.332819	0.359802	4.174410
3904.000000	0.269314	0.293674	1.670269
3905.000000	0.283593	0.278850	1.358282
3906.000000	0.353050	0.330609	2.296999
3907.000000	0.322537	0.321867	0.927117
3908.000000	0.298882	0.261221	1.488299
3909.000000	0.334287	0.371158	1.148677
3910.000000	0.287876	0.287932	1.432190
3911.000000	0.304160	0.291687	2.153490
3912.000000	0.373158	0.365101	1.118741
3913.000000	0.342284	0.389528	2.032701
3914.000000	0.284825	0.300885	1.623367
3915.000000	0.281000	0.274604	2.143192
3916.000000	0.336864	0.365762	1.527109
3917.000000	0.295914	0.297764	1.451124
3918.000000	0.280253	0.269418	1.490621
3919.000000	0.322276	0.371335	2.615467
3920.000000	0.311843	0.328763	1.700851
3921.000000	0.296342	0.322240	1.102882
3922.000000	0.334446	0.373023	1.024842
3923.000000	0.327881	0.292838	1.645380
3924.000000	0.302885	0.334486	1.196844
3925.000000	0.358718	0.340759	1.548320
3926.000000	0.320066	0.317980	2.401149
3927.000000	0.295558	0.332962	0.963087
3928.000000	0.334604	0.350664	2.203610
3929.000000	0.295002	0.273048	1.200968
3930.000000	0.294818	0.269900	1.026651
3931.000000	0.305488	0.318479	1.777516
3932.000000	0.248421	0.275935	1.476639
3933.000000	0.328434	0.428507	1.348450
3934.000000	0.313977	0.352231	1.402091
3935.000000	0.287577	0.301705	1.406965
3936.000000	0.324607	0.325809	1.896857
3937.000000	0.304721	0.313526	1.050680
3938.000000	0.285609	0.277851	1.307319
3939.000000	0.342231	0.363393	1.498185
3940.000000	0.288391	0.290071	1.667393
3941.000000	0.339904	0.356653	1.528579
3942.000000	0.304375	0.276145	1.066730
3943.000000	0.299729	0.295046	1.303631
3944.000000	0.308472	0.341281	1.714828
3945.000000	0.319626	0.348327	0.977885
3946.000000	0.376446	0.377763	2.216784
3947.000000	0.279355	0.305941	0.982542
3948.000000	0.332342	0.402382	1.535854
3949.000000	0.284188	0.289395	1.396775
3950.000000	0.308222	0.318697	1.598442
3951.000000	0.313614	0.313756	1.219973
3952.000000	0.254096	0.243299	1.800999
3953.000000	0.326495	0.308047	1.346018
3954.000000	0.294979	0.309947	1.330302
3955.000000	0.305512	0.350463	1.718876
3956.000000	0.315442	0.409199	1.477647
3957.000000	0.280769	0.296988	1.017101
3958.000000	0.283394	0.309272	0.992465
3959.000000	0.341802	0.364803	1.648616
3960.000000	0.311516	0.292777	1.439465
3961.000000	0.321110	0.328449	1.542385
3962.000000	0.320515	0.362093	0.965765
3963.000000	0.310785	0.372841	1.053384
3964.000000	0.303725	0.297874	1.342507
3965.000000	0.294054	0.307014	0.950360
3966.000000	0.341360	0.364167	1.243147
3967.000000	0.283042	0.321513	1.046166
3968.000000	0.323228	0.271960	2.059748
3969.000000	0.305524	0.335690	1.189313
3970.000000	0.322932	0.294548	1.735924
3971.000000	0.320233	0.324485	1.243090
3972.000000	0.321702	0.301832	1.824380
3973.000000	0.342636	0.314232	1.170441
3974.000000	0.339187	0.340778	1.213535
3975.000000	0.293156	0.291869	1.337244
3976.000000	0.339718	0.306435	1.169353
3977.000000	0.324829	0.335501	1.802491
3978.000000	0.300994	0.322134	1.295198
3979.000000	0.300907	0.311646	1.340672
3980.000000	0.302411	0.315159	1.452129
3981.000000	0.319627	0.367878	1.899921
3982.000000	0.308152	0.330883	1.201199
3983.000000	0.291460	0.299540	1.979635
3984.000000	0.307152	0.289732	1.092492
3985.000000	0.315921	0.366572	1.093698
3986.000000	0.312834	0.304319	1.181182
3987.000000	0.275069	0.301353	1.152342
3988.000000	0.291091	0.268042	0.957628
3989.000000	0.308462	0.307400	1.599013
3990.000000	0.344926	0.347975	1.610951
3991.000000	0.324893	0.338298	1.169597
3992.000000	0.312061	0.288192	1.800322
3993.000000	0.299239	0.327799	1.339289
3994.000000	0.296232	0.299116	1.772113
3995.000000	0.321310	0.344610	1.077352
3996.000000	0.502247	0.436482	2.423503
3997.000000	10.276647	9.718757	49.173634
3998.000000	8.406329	8.440265	58.727278
3999.000000	10.266789	10.979055	52.075861
4000.000000	10.020489	10.604992	77.045544
4001.000000	9.417026	10.624467	55.540673
4002.000000	9.306744	8.968757	55.681136
4003.000000	10.500088	10.682067	37.627049
4004.000000	9.458658	9.371939	44.001395
4005.000000	9.038097	9.590321	33.456857
4006.000000	11.219316	11.707623	67.228723
4007.000000	10.011222	10.062699	51.019336
4008.000000	10.366863	10.868380	53.396002
4009.000000	9.597859	11.311161	36.856636
4010.000000	10.862860	10.866803	53.451869
4011.000000	8.943652	9.184178	45.976335
4012.000000	9.704181	12.002502	39.071415
4013.000000	9.073702	9.637636	43.993376
4014.000000	9.436502	11.142181	66.092352
4015.000000	9.300789	8.645340	41.580795
4016.000000	9.302815	9.717870	33.504676
4017.000000	8.657967	9.832774	36.921788
4018.000000	10.654147	11.978486	39.020050
4019.000000	9.823757	11.235386	34.714762
4020.000000	10.067943	12.617391	34.763677
4021.000000	10.076380	9.260559	39.314834
4022.000000	9.302898	8.833208	43.673320
4023.000000	10.639936	9.940188	70.263707
4024.000000	9.286344	9.864190	33.516310
4025.000000	10.418596	10.488501	27.130573
4026.000000	11.083229	11.245103	26.893948
4027.000000	9.660340	9.993068	35.391853
4028.000000	10.717266	10.322214	42.201688
4029.000000	10.289529	10.668702	47.110821
4030.000000	10.589578	12.912392	34.632009
4031.000000	9.872343	10.452875	34.311385
4032.000000	11.091632	10.586850	35.435970
4033.000000	9.382070	9.963726	38.344160
4034.000000	11.734562	12.215654	41.115639
4035.000000	10.736576	11.863781	52.441434
4036.000000	11.099869	9.887360	54.595572
4037.000000	25.340790	28.312724	193.389603
4038.000000	1016.420963	1100.954895	3370.292896
4039.000000	589.036809	583.907410	3679.799953
4040.000000	427.497383	452.315105	1606.281746
4041.000000	358.014705	341.830581	1492.377630
4042.000000	271.717593	279.061299	1446.723934
4043.000000	240.250706	231.105603	1242.753075
4044.000000	226.023888	254.164881	1669.723016
4045.000000	228.862619	225.322718	855.341225
4046.000000	196.630201	193.421293	1389.998427
4047.000000	191.829005	172.054094	1014.378489
4048.000000	201.692752	208.787225	1133.274991
4049.000000	177.188684	174.954975	792.460018
4050.000000	181.597116	180.701219	717.363165
4051.000000	162.116887	161.774203	1140.079320
4052.000000	147.739217	138.147691	788.497910
4053.000000	166.031138	198.651881	664.158511
4054.000000	140.043330	121.819066	1023.924452
4055.000000	155.364614	159.666114	793.915246
4056.000000	182.383376	176.947574	557.457117
4057.000000	139.142840	145.033736	736.501613
4058.000000	127.230224	116.803986	414.541828
4059.000000	136.794438	142.489896	658.420905
4060.000000	119.873833	108.846144	313.003419
4061.000000	100.868965	97.578552	769.406057
4062.000000	134.016984	137.245112	409.613168
4063.000000	108.126682	101.134393	567.913052
4064.000000	102.764439	105.408677	563.808346
4065.000000	98.329194	107.750612	336.474637
4066.000000	87.508436	77.315230	282.695445
4067.000000	86.106978	82.347536	501.141175
4068.000000	75.806210	76.088566	242.906569
4069.000000	60.342809	59.393288	271.799030
4070.000000	67.395827	58.133249	319.164798
4071.000000	58.373934	59.138770	263.390065
4072.000000	56.390409	54.951938	204.362634
4073.000000	50.106191	49.207317	233.698003
4074.000000	44.417502	39.022685	300.952863
4075.000000	46.152069	41.233266	174.510645
4076.000000	35.894842	33.545517	182.475128
4077.000000	36.762856	36.238287	177.734944
4078.000000	29.226773	29.767408	132.070306
4079.000000	32.702415	31.436115	117.764222
4080.000000	30.926795	29.104156	146.670276
4081.000000	29.673864	28.785805	142.351109
4082.000000	21.435763	21.510764	92.754874
4083.000000	26.952801	24.791093	131.194585
4084.000000	25.970938	25.984068	143.339020
4085.000000	22.900143	25.170502	103.770974
4086.000000	24.161383	24.164096	87.874934
4087.000000	24.569777	26.383359	115.557397
4088.000000	24.112784	22.560047	116.240522
4089.000000	26.653579	27.665645	149.905788
4090.000000	24.206048	27.067060	119.411517
4091.000000	26.875241	27.874733	94.127827
4092.000000	27.726186	29.778310	157.484790
4093.000000	29.319877	30.852278	104.957707
4094.000000	32.410811	32.598852	135.005775
4095.000000	33.033877	27.469125	170.201638
4096.000000	34.647675	33.687711	239.318138
4097.000000	36.618672	36.771914	251.759091
4098.000000	40.166193	40.710298	112.354231
4099.000000	42.280540	41.656469	176.471941
4100.000000	40.325197	36.177718	244.295856
4101.000000	47.723340	46.838993	201.237384
4102.000000	46.427169	48.175813	255.287644
4103.000000	45.562276	49.939171	214.889549
4104.000000	52.938244	57.670566	218.521819
4105.000000	54.868723	47.689080	193.086930
4106.000000	42.379750	41.305511	275.416154
4107.000000	60.618557	51.173374	184.207989
4108.000000	58.705338	56.896791	158.360674
4109.000000	64.744994	68.792101	225.482489
4110.000000	56.541057	53.994530	255.396513
4111.000000	60.225509	55.048765	312.520919
4112.000000	72.067616	72.696200	311.535488
4113.000000	70.647231	65.680721	322.296223
4114.000000	73.808007	71.419132	290.454358
4115.000000	85.019059	86.299967	367.060718
4116.000000	73.365456	77.539088	444.567994
4117.000000	79.575312	78.061987	319.765340
4118.000000	82.893723	76.703215	433.787000
4119.000000	89.440736	86.206283	428.298236
4120.000000	104.549397	114.650727	372.015361
4121.000000	91.751955	89.118077	460.638500
4122.000000	98.198184	94.840033	543.724521
4123.000000	121.246863	123.384833	412.578683
4124.000000	99.062550	93.388024	665.510926
4125.000000	114.139529	115.433211	400.405017
4126.000000	126.129313	119.704839	552.638967
4127.000000	132.767825	119.550449	625.565251
4128.000000	120.200506	130.547622	579.052932
4129.000000	142.283021	137.109309	698.398067
4130.000000	145.560459	140.777850	549.970290
4131.000000	139.525327	145.604072	761.292397
4132.000000	158.495703	146.093910	645.313134
4133.000000	169.945517	151.072447	752.807292
4134.000000	179.506260	167.991661	697.913768
4135.000000	181.045117	178.056041	769.709908
4136.000000	203.020816	212.026684	575.069818
4137.000000	222.392348	232.915162	1229.739207
4138.000000	251.003575	236.161059	1703.527337
4139.000000	263.107148	269.924998	978.162253
4140.000000	231.738211	225.355960	1666.528237
4141.000000	364.871652	374.900665	1925.304744
4142.000000	325.959985	341.581989	1569.597033
4143.000000	398.713722	390.802364	2432.575895
4144.000000	459.473540	417.412853	1618.976936
4145.000000	556.146720	596.358136	1659.383586
4146.000000	609.524167	627.697540	4593.800984
4147.000000	691.275354	633.826320	3773.080200
4148.000000	906.104843	940.499140	3616.912622
4149.000000	1111.154545	1121.804013	3049.155670
4150.000000	1238.126868	1129.966670	6656.030452
4151.000000	1446.006300	1530.650979	4934.629293
4152.000000	1778.157126	1626.284411	8169.372142
4153.000000	2033.022920	1951.276454	6136.954979
4154.000000	2327.989167	2290.812178	11569.795631
4155.000000	2270.574995	2264.675744	12561.597404
4156.000000	2776.693105	2749.615672	21326.676954
4157.000000	3301.460554	3409.834936	12142.388974
4158.000000	3546.057929	3205.211635	14386.704661
4159.000000	3655.112689	3597.899731	22345.619231
4160.000000	4102.666062	4285.324504	12861.323798
4161.000000	4392.410673	4345.529735	18120.449429
4162.000000	4142.331021	4029.268324	16213.667464
4163.000000	4602.887471	4852.224670	24785.370749
4164.000000	4174.714864	4192.797302	12689.733843
4165.000000	3584.481162	3865.451228	18326.212179
4166.000000	3484.463566	3293.885276	15599.743700
4167.000000	2483.071084	2617.911551	15430.400169
4168.000000	2214.003382	2062.546776	12619.460806
4169.000000	1434.490389	1277.190926	7602.919324
4170.000000	1256.621288	1257.279126	5092.096827
4171.000000	1049.027819	1115.625045	3862.418957
4172.000000	978.064386	856.060547	3475.481792
4173.000000	864.329749	796.043475	3083.167077
4174.000000	769.799134	869.413290	2164.019209
4175.000000	534.347049	564.237024	2528.147998
4176.000000	450.565578	385.163610	2829.381085
4177.000000	639.857182	749.576260	3110.914666
4178.000000	674.306958	702.098282	2788.600875
4179.000000	321.098650	368.079866	1629.260187
4180.000000	95.548492	96.748902	551.303475
4181.000000	33.082078	32.478742	173.566894
4182.000000	17.330757	17.405525	65.023280
4183.000000	13.137597	11.802132	77.497122
4184.000000	10.985940	11.203276	53.583286
4185.000000	10.462447	9.700588	62.779679
4186.000000	10.975378	12.089603	69.137331
4187.000000	10.004042	10.102049	32.751548
4188.000000	10.197969	10.623269	53.210899
4189.000000	9.491360	8.819225	61.756879
4190.000000	10.091789	9.060685	58.505187
4191.000000	9.334933	9.998029	48.352174
4192.000000	10.309804	9.588420	55.733458
4193.000000	11.473648	10.964236	36.425654
4194.000000	9.682673	8.494409	125.075889
4195.000000	10.252506	11.673633	35.839660
4196.000000	9.799454	8.910667	43.213980
4197.000000	10.236733	12.694046	38.248992
4198.000000	8.993242	10.239836	37.487338
4199.000000	9.961473	9.543407	71.061790
4200.000000	9.386325	9.661231	37.397759
4201.000000	9.285668	9.496907	47.250141
4202.000000	8.732943	8.723700	54.969745
4203.000000	10.332930	11.025286	26.635939
4204.000000	10.494075	10.755574	33.473227
4205.000000	8.841016	8.748783	56.061427
4206.000000	9.395693	10.989383	54.121889
4207.000000	10.300050	11.310467	27.587624
4208.000000	10.808422	11.729535	39.327858
4209.000000	10.057779	11.211685	33.334854
4210.000000	10.007305	10.718278	31.238888
4211.000000	12.086725	13.526150	36.891798
4212.000000	9.417861	9.782399	45.428316
4213.000000	10.456327	10.036490	69.152296
4214.000000	8.762961	8.783870	40.177453
4215.000000	10.109834	11.085945	38.651689
4216.000000	10.676786	12.201084	35.565157
4217.000000	8.936977	8.893760	63.663219
4218.000000	9.671918	10.636455	36.908776
4219.000000	9.661998	11.888851	85.837555
4220.000000	9.564705	10.563008	48.060480
4221.000000	9.115213	10.172922	69.502506
4222.000000	10.539170	10.147671	52.678370
4223.000000	10.129297	12.547805	47.315999
4224.000000	9.516305	9.836202	58.141686
4225.000000	9.729450	9.496230	54.650057
4226.000000	10.644984	11.110504	51.805934
4227.000000	9.428714	8.924477	38.618213
4228.000000	9.411903	8.723403	61.752739
4229.000000	9.799883	10.503507	80.791323
4230.000000	9.150355	9.388230	36.201791
4231.000000	9.792879	8.557492	57.988551
4232.000000	10.936925	12.180540	68.320147
4233.000000	9.936647	10.549422	32.467390
4234.000000	9.257586	8.745402	101.235915
4235.000000	8.710013	8.889377	89.170643
4236.000000	10.689445	11.265264	59.439403
4237.000000	9.278930	9.068631	67.610807
4238.000000	10.354332	10.678851	45.502449
4239.000000	9.815721	8.391196	102.641150
4240.000000	9.098611	10.090373	77.540638
4241.000000	9.575393	9.290448	87.005750
4242.000000	9.517265	9.409733	66.884424
4243.000000	9.665003	9.176499	52.891850
4244.000000	8.984569	8.649362	52.882719
4245.000000	10.561640	12.226451	51.850933
4246.000000	10.469399	11.642551	187.361428
4247.000000	11.143119	11.204859	96.229171
4248.000000	9.690587	10.007327	36.232737
4249.000000	9.736587	10.032469	42.260491
4250.000000	8.276185	8.234393	43.939179
4251.000000	10.593750	11.311417	48.176276
4252.000000	10.578297	11.501378	46.457823
4253.000000	10.283352	10.477331	41.338364
4254.000000	9.383557	9.234902	54.830167
4255.000000	8.719240	10.001372	44.854209
4256.000000	8.368835	8.749459	46.504559
4257.000000	10.374430	11.685956	32.528562
4258.000000	10.219178	11.871752	44.139946
4259.000000	9.704558	10.127149	103.920265
4260.000000	9.705643	9.482104	80.136155
4261.000000	9.673994	8.756145	56.696224
4262.000000	9.532434	9.269183	48.944551
4263.000000	11.148550	10.259587	53.660335
4264.000000	9.857561	10.625015	105.325851
4265.000000	10.349866	10.430715	56.010118
4266.000000	9.422769	10.206587	211.039203
4267.000000	9.823517	10.280053	93.645146
4268.000000	10.644059	9.711657	71.766898
4269.000000	9.780834	10.338379	56.726532
4270.000000	10.044670	10.794358	54.156300
4271.000000	9.267874	9.342772	79.129870
4272.000000	9.196847	9.787255	47.215924
4273.000000	8.814026	8.268714	55.112441
4274.000000	10.215811	10.372010	115.283919
4275.000000	10.120490	9.336797	61.772523
4276.000000	9.194010	8.657827	93.716072
4277.000000	9.346040	8.987043	39.909898
4278.000000	9.469868	8.306910	58.855456
4279.000000	9.225684	10.178196	68.182090
4280.000000	10.199945	11.112548	106.945265
4281.000000	8.978258	9.640981	58.288552
4282.000000	9.795299	10.144451	85.180641
4283.000000	8.546043	8.661249	73.331478
4284.000000	8.969371	9.252335	45.819485
4285.000000	9.162306	10.815068	48.718308
4286.000000	9.249998	9.920971	42.727480
4287.000000	10.880526	10.903304	60.668979
4288.000000	10.081044	11.836447	50.752830
4289.000000	10.298381	9.435498	64.118758
4290.000000	10.001428	9.843827	58.242208
