

# Beam is placed between 75um and 20um sample, pol full open
# Scan parameters: power 19.000000 dBm, bandwidth 1.500000 Hz
# Frequency [MHz]	avg noise	std noise	peak value
3850.000000	13.950817	11.378166	680.765044
3851.000000	6.543767	6.323433	717.410683
3852.000000	6.807590	7.279538	298.848127
3853.000000	6.349784	7.055562	884.528161
3854.000000	6.263527	6.944076	883.008425
3855.000000	5.970574	6.270931	634.583378
3856.000000	6.838890	6.756772	884.901436
3857.000000	5.968715	5.917020	774.406282
3858.000000	6.984799	6.359802	942.789338
3859.000000	7.024456	5.770155	1245.940763
3860.000000	6.372576	5.649205	923.980305
3861.000000	6.316802	6.440675	1238.119354
3862.000000	7.228045	6.718289	1653.483551
3863.000000	6.676624	7.612803	596.205931
3864.000000	6.391549	5.997625	1299.916074
3865.000000	6.485329	6.053213	979.526056
3866.000000	5.869812	5.895107	695.865282
3867.000000	5.677812	5.036064	1142.807898
3868.000000	5.560375	5.280509	1096.149388
3869.000000	6.580905	7.185996	939.234340
3870.000000	6.757607	7.873936	1295.940308
3871.000000	6.441814	6.423643	781.036722
3872.000000	6.777839	6.258174	1315.238851
3873.000000	6.301695	5.983327	1145.513771
3874.000000	6.678413	6.737400	485.764601
3875.000000	7.265005	6.926882	1324.783329
3876.000000	6.964741	6.543411	1475.923089
3877.000000	5.864604	5.852023	697.984479
3878.000000	7.859954	8.403048	1726.069170
3879.000000	7.031727	6.957312	1352.517885
3880.000000	6.986039	6.780204	1090.079897
3881.000000	7.859903	7.463883	1747.511361
3882.000000	8.499145	7.715847	1275.877513
3883.000000	7.248383	7.666170	1625.927184
3884.000000	7.201194	7.283915	1680.780491
3885.000000	6.902331	6.399940	1240.506330
3886.000000	6.967620	6.774454	1623.618539
3887.000000	7.085834	6.050796	1746.179814
3888.000000	6.796854	6.396163	962.027742
3889.000000	8.111375	8.066524	2146.254351
3890.000000	8.063228	8.602263	1993.189521
3891.000000	7.979146	8.312204	1175.128192
3892.000000	6.885734	7.202722	2235.934990
3893.000000	7.370291	7.423770	2079.800102
3894.000000	7.561808	7.641718	1504.377194
3895.000000	6.768760	7.256992	1965.838865
3896.000000	7.382100	7.910336	1552.058861
3897.000000	8.250808	8.365120	1936.010870
3898.000000	6.716678	6.461605	2802.696912
3899.000000	8.454409	7.251134	1248.902513
3900.000000	7.934615	7.371427	2342.440929
3901.000000	8.194242	7.506352	2212.010979
3902.000000	7.616147	7.559505	1224.869723
3903.000000	7.667510	8.166736	2408.849957
3904.000000	7.459916	8.394186	1967.129331
3905.000000	7.514024	7.911214	1531.125789
3906.000000	7.596809	6.892522	2366.840623
3907.000000	7.524335	7.399794	1434.979268
3908.000000	8.879609	9.851375	1580.616114
3909.000000	7.568215	7.123779	2372.096958
3910.000000	8.654463	8.122344	1546.986313
3911.000000	7.292374	7.357366	1947.692723
3912.000000	6.895376	6.158656	2094.481525
3913.000000	8.595635	8.601763	1043.599531
3914.000000	7.734731	7.809661	1969.717575
3915.000000	7.914491	8.851291	2014.334409
3916.000000	8.040911	7.813327	1211.656025
3917.000000	7.980272	8.489258	2336.498205
3918.000000	7.225227	8.036408	1203.560830
3919.000000	7.610315	8.344832	1375.798538
3920.000000	9.028114	8.973061	2072.958343
3921.000000	7.312736	7.768159	1282.254535
3922.000000	8.454754	8.803476	1803.515153
3923.000000	8.108720	8.191949	2070.317582
3924.000000	8.404903	8.248557	1018.381150
3925.000000	7.499614	8.173849	1610.028640
3926.000000	7.272902	7.297911	1702.705931
3927.000000	7.494973	8.470761	984.729326
3928.000000	8.238777	8.625082	1481.705064
3929.000000	8.117079	8.068438	1504.173995
3930.000000	8.715185	8.565486	1009.958045
3931.000000	8.051489	8.314458	1401.150326
3932.000000	8.792119	8.256764	864.494025
3933.000000	8.772896	8.046088	1091.463134
3934.000000	8.807906	7.993819	1066.156275
3935.000000	8.722536	8.120853	698.822794
3936.000000	8.289718	8.542792	722.065776
3937.000000	8.734371	8.321219	554.358007
3938.000000	7.112628	7.492868	275.490939
3939.000000	7.328240	7.092774	457.680586
3940.000000	8.080425	8.642452	433.061425
3941.000000	8.090321	8.281223	287.582842
3942.000000	7.777616	8.702967	392.052596
3943.000000	8.196712	8.495534	317.652551
3944.000000	8.324266	7.836727	329.956630
3945.000000	7.566903	6.967021	650.544821
3946.000000	8.523511	8.118715	385.266889
3947.000000	8.227290	8.436611	400.101651
3948.000000	7.741984	7.875910	735.847046
3949.000000	6.351603	5.863276	298.216091
3950.000000	7.904815	7.568145	819.754603
3951.000000	8.498798	8.490850	1198.138873
3952.000000	8.156336	7.928913	702.055449
3953.000000	9.083653	8.421807	1244.767036
3954.000000	6.853448	7.319542	1110.376245
3955.000000	7.948699	7.257930	775.487344
3956.000000	7.635116	7.855244	1045.725049
3957.000000	7.658397	7.550823	800.295568
3958.000000	8.130443	8.798710	758.454954
3959.000000	6.851223	7.767207	1086.594462
3960.000000	6.466772	6.937102	667.022540
3961.000000	8.325322	8.075850	943.825529
3962.000000	9.402207	9.134462	895.043269
3963.000000	7.472944	7.647423	471.002796
3964.000000	8.437598	8.419066	1081.528443
3965.000000	7.115775	7.085639	1006.223153
3966.000000	7.933633	8.208675	600.805339
3967.000000	6.679650	6.700958	1367.696336
3968.000000	7.932037	7.368438	764.521707
3969.000000	8.243354	8.248045	1026.935839
3970.000000	8.038787	8.120990	1393.005718
3971.000000	7.190461	6.841176	889.039115
3972.000000	7.661213	8.446708	1103.553744
3973.000000	8.450437	7.144404	1581.562689
3974.000000	7.357319	7.061548	468.432397
3975.000000	8.076459	8.301637	925.129535
3976.000000	8.075105	8.601101	880.984679
3977.000000	7.851589	8.841040	390.943070
3978.000000	7.033612	6.708642	766.539349
3979.000000	8.319638	7.608769	584.072738
3980.000000	7.653225	6.958112	694.110919
3981.000000	8.359805	7.971783	914.809702
3982.000000	8.172758	7.953915	500.838588
3983.000000	7.511830	7.211964	637.117285
3984.000000	7.306065	7.547425	1020.016049
3985.000000	8.688299	8.927661	592.521112
3986.000000	7.165014	7.458257	1414.999061
3987.000000	8.035408	8.755653	1431.006674
3988.000000	6.876129	6.335426	786.095713
3989.000000	7.853337	8.284042	1901.429872
3990.000000	7.635841	7.960219	2183.913453
3991.000000	8.653441	8.755334	1388.805731
3992.000000	7.284138	6.384498	2626.828278
3993.000000	7.864140	9.208338	2420.845234
3994.000000	7.542197	6.990644	2150.087212
3995.000000	6.916609	8.433850	3607.294776
3996.000000	7.971722	8.180500	2299.972553
3997.000000	7.157593	7.501312	3330.056455
3998.000000	7.461814	6.631916	4311.924958
3999.000000	7.776418	7.255596	1924.934063
4000.000000	8.486776	8.423308	4049.590396
4001.000000	8.878170	7.961618	4454.777131
4002.000000	7.572258	7.416805	2092.436408
4003.000000	7.468289	7.493696	4747.313866
4004.000000	7.192914	7.289757	3863.490606
4005.000000	7.893426	8.684322	3070.104700
4006.000000	7.166665	6.603169	4874.670103
4007.000000	8.134668	8.650350	3246.674566
4008.000000	7.253376	6.939043	3146.722273
4009.000000	8.173318	8.919251	3848.650863
4010.000000	8.269127	8.437254	2104.993812
4011.000000	9.290505	9.006874	2479.993126
4012.000000	6.789848	6.911670	2898.686648
4013.000000	7.133954	7.622229	1154.288300
4014.000000	7.588714	7.167114	2574.240062
4015.000000	7.011504	7.333413	2043.233634
4016.000000	7.810434	8.488186	1393.651809
4017.000000	7.526454	7.438988	2540.862379
4018.000000	8.159404	7.333230	1675.877415
4019.000000	7.603750	8.389446	1383.080122
4020.000000	8.354682	8.979970	2331.030668
4021.000000	8.805280	8.524578	1526.074374
4022.000000	8.139946	7.617875	1776.284506
4023.000000	8.509098	8.359097	1981.908879
4024.000000	8.645378	8.214428	977.985338
4025.000000	7.749090	7.223765	1616.271096
4026.000000	8.035098	9.426279	1934.772376
4027.000000	9.145049	9.902655	1143.571550
4028.000000	8.021927	7.313384	2077.328013
4029.000000	7.640549	7.668635	2157.950515
4030.000000	8.776589	8.308927	1788.601971
4031.000000	8.344372	8.028230	2802.680512
4032.000000	9.120601	8.839963	1721.619818
4033.000000	8.286845	8.975777	1998.402261
4034.000000	9.229663	9.796159	2378.701812
4035.000000	8.595955	9.553584	1532.400564
4036.000000	8.101137	8.179161	1878.990511
4037.000000	7.594326	6.982881	1867.465645
4038.000000	8.538862	9.484794	916.653168
4039.000000	7.600576	7.364854	1640.248848
4040.000000	8.603586	9.015940	1679.306730
4041.000000	8.301293	7.211090	831.415777
4042.000000	8.321569	8.266125	1421.532141
4043.000000	8.603691	9.132097	1180.512683
4044.000000	9.355577	9.102136	1197.402293
4045.000000	8.875215	8.536858	1514.336471
4046.000000	10.378524	10.616006	812.541192
4047.000000	8.391668	8.294974	1197.931960
4048.000000	9.427551	9.929128	1615.467117
4049.000000	8.606912	8.300735	703.722574
4050.000000	8.356671	7.611211	1332.482335
4051.000000	8.680521	8.372039	1248.593915
4052.000000	9.072849	8.489582	569.118037
4053.000000	8.538375	10.300526	1095.169106
4054.000000	8.846002	8.585133	662.352810
4055.000000	8.151701	8.082896	588.876993
4056.000000	9.549505	8.433578	994.975258
4057.000000	8.746327	8.941167	635.150349
4058.000000	9.594747	9.315969	401.509140
4059.000000	7.828841	8.744041	537.041890
4060.000000	9.234297	9.832662	315.735648
4061.000000	10.432274	10.208736	242.979338
4062.000000	11.259698	11.295346	416.788650
4063.000000	8.100597	8.062826	332.968959
4064.000000	9.889803	11.218402	709.673579
4065.000000	9.434751	9.789354	391.681489
4066.000000	10.095372	9.573009	275.630436
4067.000000	10.051679	10.761215	478.373172
4068.000000	10.878038	11.805599	331.872391
4069.000000	9.091497	9.122878	280.812498
4070.000000	9.378926	9.359609	310.972668
4071.000000	9.966934	9.452973	177.059913
4072.000000	9.204426	8.561206	400.033426
4073.000000	9.276686	8.265315	247.742753
4074.000000	10.738893	10.753039	149.088677
4075.000000	8.869748	10.205949	310.131072
4076.000000	9.026938	9.248710	459.901457
4077.000000	10.269539	9.172629	222.268733
4078.000000	9.480087	8.435819	430.468119
4079.000000	10.073512	8.865416	625.488210
4080.000000	8.838841	8.467025	365.636044
4081.000000	8.905966	8.585171	642.266846
4082.000000	9.819016	10.498328	571.785324
4083.000000	9.703794	10.532276	491.668667
4084.000000	10.131913	9.157615	730.714853
4085.000000	9.339528	8.865650	430.519870
4086.000000	10.363761	9.589782	637.211227
4087.000000	9.449634	10.849042	581.858610
4088.000000	8.865935	8.684307	369.133307
4089.000000	10.501975	9.921344	729.660859
4090.000000	9.901359	9.504783	686.077658
4091.000000	9.777023	9.936086	352.908428
4092.000000	9.763403	9.168073	879.310897
4093.000000	10.884365	12.626313	635.080290
4094.000000	9.022815	8.397976	973.967468
4095.000000	8.643843	9.933788	1043.585773
4096.000000	8.832579	8.335988	789.703192
4097.000000	9.534351	9.098303	1366.028096
4098.000000	10.789552	10.956188	1546.202651
4099.000000	8.843153	8.999916	952.910074
4100.000000	9.015268	10.054855	1687.499567
4101.000000	10.107679	9.104000	1970.304790
4102.000000	9.450402	9.310032	1025.307826
4103.000000	9.956461	10.061725	1917.660288
4104.000000	9.897293	9.718992	1698.261113
4105.000000	7.673704	6.960329	1078.999159
4106.000000	6.958156	6.834473	1623.578773
4107.000000	9.339666	8.525396	1022.475329
4108.000000	8.687357	8.321536	1190.373402
4109.000000	9.409527	8.884047	1413.002397
4110.000000	9.833579	8.910268	959.430081
4111.000000	10.720254	10.954123	991.135481
4112.000000	9.841674	9.161391	1201.059527
4113.000000	9.214651	8.660927	299.026925
4114.000000	9.501052	9.594648	1005.510386
4115.000000	8.487316	8.884463	928.585551
4116.000000	9.728379	9.404469	499.465699
4117.000000	10.077099	10.692147	1002.881669
4118.000000	9.723374	9.023313	701.241352
4119.000000	10.607532	10.214980	591.120909
4120.000000	9.916608	10.577727	898.319098
4121.000000	10.117929	10.433363	509.181568
4122.000000	10.236463	9.441641	753.983808
4123.000000	9.251997	9.762393	941.028249
4124.000000	9.300057	9.980268	306.737068
4125.000000	10.501452	10.530115	803.683638
4126.000000	10.056458	9.317189	644.136201
4127.000000	8.966092	8.613867	497.642229
4128.000000	11.516738	10.527047	529.637224
4129.000000	9.943544	9.625249	657.999066
4130.000000	8.648263	8.679525	503.382552
4131.000000	8.379852	8.242929	816.128462
4132.000000	10.310241	9.122229	765.365774
4133.000000	9.658362	9.416865	507.627614
4134.000000	9.304830	9.733585	751.515408
4135.000000	8.345355	8.539082	541.807250
4136.000000	9.069963	9.522342	578.509481
4137.000000	8.755705	9.367267	494.674170
4138.000000	9.062890	9.026304	337.556019
4139.000000	8.170014	8.705478	569.710160
4140.000000	8.857009	7.938991	577.781190
4141.000000	9.171930	9.021337	343.051770
4142.000000	9.714502	9.857231	691.285297
4143.000000	9.581396	9.444573	625.026397
4144.000000	9.803227	9.185274	481.763608
4145.000000	9.537009	9.443227	556.725957
4146.000000	8.462870	7.346431	224.924188
4147.000000	9.612194	9.185472	375.915575
4148.000000	9.776600	9.384108	442.267254
4149.000000	8.193326	7.947872	284.648310
4150.000000	9.186190	8.295000	391.446977
4151.000000	8.284985	7.440073	304.213205
4152.000000	8.813433	8.555573	127.645824
4153.000000	8.248376	8.502882	209.986781
4154.000000	8.363943	8.378964	226.059947
4155.000000	9.049280	8.395138	90.839376
4156.000000	9.471445	9.616660	289.943783
4157.000000	11.251473	11.498670	256.351219
4158.000000	8.481565	8.335842	194.953532
4159.000000	9.120902	9.250944	356.957509
4160.000000	8.441119	8.344511	97.106118
4161.000000	8.764569	8.981898	350.608520
4162.000000	9.185519	9.741638	275.010514
4163.000000	9.300614	8.923262	100.429620
4164.000000	9.076644	7.797263	156.222634
4165.000000	8.174780	7.900915	157.888066
4166.000000	11.756409	11.032227	112.023145
4167.000000	8.419817	7.606092	139.398595
4168.000000	8.148233	8.018012	81.472287
4169.000000	8.853150	8.945773	87.755227
4170.000000	7.355202	7.027549	132.555205
4171.000000	8.615071	9.088372	53.769860
4172.000000	7.643576	6.875867	67.815375
4173.000000	7.889368	7.848746	121.927217
4174.000000	8.259230	9.044153	64.164253
4175.000000	7.944501	7.704375	67.463069
4176.000000	10.627777	10.452587	94.541986
4177.000000	8.265028	8.221394	38.789521
4178.000000	7.049710	6.409278	92.987742
4179.000000	7.277595	6.639721	33.030963
4180.000000	8.002011	7.783026	53.413435
4181.000000	6.941215	6.623963	121.767656
4182.000000	7.066617	6.736757	57.783459
4183.000000	7.069214	7.211137	53.829523
4184.000000	8.204045	8.883998	59.052726
4185.000000	7.229216	6.538095	39.441379
4186.000000	6.868805	6.032882	63.566366
4187.000000	7.667542	7.511731	37.943190
4188.000000	8.110907	8.007353	47.372644
4189.000000	7.163979	7.841101	82.962643
4190.000000	8.895235	8.653922	67.294756
4191.000000	8.027678	7.730898	34.831714
4192.000000	7.985663	8.084938	68.595804
4193.000000	7.893234	8.089304	76.252563
4194.000000	7.855271	7.636628	48.691142
4195.000000	6.012102	6.373840	90.341901
4196.000000	7.035110	7.116748	31.797996
4197.000000	7.372637	8.407809	101.789934
4198.000000	6.889741	7.339574	75.198667
4199.000000	7.529845	7.035969	42.117916
4200.000000	8.957925	8.946039	69.950605
4201.000000	7.616991	6.977961	105.597466
4202.000000	6.671206	6.868868	51.877246
4203.000000	7.481709	8.502730	72.572879
4204.000000	7.172266	7.675766	54.722835
4205.000000	6.502039	6.399327	64.574858
4206.000000	6.755538	6.555456	36.350217
4207.000000	7.008223	7.145027	63.019907
4208.000000	6.746333	7.037549	85.637203
4209.000000	6.391020	6.106578	78.798629
4210.000000	7.382651	7.923496	41.319440
4211.000000	6.149893	6.446838	91.940952
4212.000000	6.878988	7.131086	83.431462
4213.000000	6.672143	6.370447	49.527265
4214.000000	6.866758	6.552397	59.023120
4215.000000	7.533883	6.768722	93.414060
4216.000000	7.119282	7.450766	31.986355
4217.000000	6.184998	5.975024	49.506073
4218.000000	6.888829	6.574653	34.937114
4219.000000	6.377464	5.711003	90.526066
4220.000000	7.009116	6.649302	62.225810
4221.000000	6.459758	6.284152	34.611922
4222.000000	7.439684	7.000952	60.889115
4223.000000	4.898347	4.364696	46.897937
4224.000000	7.135628	6.895124	78.473326
4225.000000	5.555094	5.379759	81.666389
4226.000000	6.500281	6.689705	76.992698
4227.000000	6.794928	6.458467	38.909128
4228.000000	6.032090	6.753692	71.835937
4229.000000	6.003017	6.237268	87.480564
4230.000000	6.600686	6.904207	42.322088
4231.000000	6.543247	6.419480	86.657671
4232.000000	6.936753	7.735002	49.232079
4233.000000	6.048135	6.476835	76.812590
4234.000000	6.709307	6.270066	82.783868
4235.000000	6.389642	5.426099	48.812071
4236.000000	7.039257	6.253951	126.008267
4237.000000	6.041379	6.304481	100.388901
4238.000000	6.834612	6.242974	67.765435
4239.000000	6.186266	6.098454	95.087855
4240.000000	7.279458	6.550134	61.781027
4241.000000	6.803020	6.580650	74.560767
4242.000000	6.294017	5.736228	76.993617
4243.000000	5.752370	5.408340	115.382997
4244.000000	5.939594	6.653020	44.984821
4245.000000	6.130502	6.137262	73.325144
4246.000000	6.443468	6.167915	35.771889
4247.000000	6.863412	7.005268	76.918545
4248.000000	6.937829	6.948220	77.850887
4249.000000	7.738645	8.765861	54.473664
4250.000000	6.231238	5.738804	27.657087
4251.000000	5.646230	5.766000	62.177256
4252.000000	5.769556	5.162599	34.053906
4253.000000	6.000523	5.672402	85.969324
4254.000000	6.558272	6.520518	43.768199
4255.000000	5.971466	6.789531	40.912860
4256.000000	5.482072	5.299102	64.875779
4257.000000	5.399196	4.735006	51.467555
4258.000000	5.626546	5.480006	45.949106
4259.000000	5.560320	5.354377	127.687703
4260.000000	6.327627	6.819141	36.283075
4261.000000	5.693868	6.055464	23.112902
4262.000000	5.925621	5.813143	132.674215
4263.000000	6.624694	6.115862	89.316001
4264.000000	5.243209	4.778295	19.139743
4265.000000	4.806591	4.376919	33.099891
4266.000000	5.861052	5.988267	32.644976
4267.000000	5.224849	5.578267	58.098061
4268.000000	6.298608	6.041364	68.875988
4269.000000	5.201390	5.291030	27.211691
4270.000000	4.801286	5.079885	34.557253
4271.000000	5.500334	5.915541	23.888824
4272.000000	4.899785	4.887340	47.543375
4273.000000	6.444370	5.537319	41.570593
4274.000000	5.457976	5.149599	38.159602
4275.000000	5.328815	5.814889	76.466626
4276.000000	5.486242	5.232767	67.869843
4277.000000	4.844007	4.589007	51.186325
4278.000000	6.008199	5.810718	109.171062
4279.000000	5.663200	4.795326	59.823757
4280.000000	4.230810	4.217075	34.403114
4281.000000	5.201884	5.016933	61.122226
4282.000000	7.434396	9.018133	35.409924
4283.000000	4.056158	4.117056	54.826613
4284.000000	4.573594	5.241742	66.187097
4285.000000	5.206654	5.792054	53.413017
4286.000000	5.330882	5.457075	75.506895
4287.000000	4.249533	4.265052	66.839086
4288.000000	3.985769	3.794523	32.130941
4289.000000	3.349264	4.063701	48.292816
4290.000000	5.527540	5.552286	35.450205
4291.000000	4.098596	4.436652	76.079204
4292.000000	5.085816	4.353308	38.548858
4293.000000	5.527340	4.741895	32.117976
4294.000000	3.636033	3.637403	44.607615
4295.000000	3.741680	4.112825	76.705734
4296.000000	4.463013	4.222056	97.273234
4297.000000	5.415643	5.209192	93.394528
4298.000000	3.168947	2.900066	158.782838
4299.000000	6.785193	5.555483	73.879976
4300.000000	4.972234	5.363803	65.592663
4301.000000	4.292210	4.356339	102.781130
4302.000000	5.267437	5.675634	59.174630
4303.000000	5.782403	4.855335	142.871858
4304.000000	4.687589	5.030007	80.751630
4305.000000	4.149950	3.993405	113.909638
4306.000000	4.678918	4.403057	151.303872
4307.000000	3.223622	3.144842	123.201007
4308.000000	3.327561	3.211060	140.399566
4309.000000	4.765350	4.518554	227.957735
4310.000000	3.539478	3.114161	69.784213
4311.000000	4.088586	3.625535	154.144244
4312.000000	3.419235	3.409613	311.278326
4313.000000	3.379210	3.211804	133.369941
4314.000000	3.204376	2.937366	153.164678
4315.000000	3.189778	3.090812	132.910284
4316.000000	3.566012	3.319738	175.420714
4317.000000	3.218784	3.092772	295.416822
4318.000000	2.712401	2.492274	213.369537
4319.000000	3.115898	2.961343	286.679003
4320.000000	3.082938	2.969231	271.501687
4321.000000	2.953274	2.989290	209.826702
4322.000000	3.297932	2.698900	334.206520
4323.000000	3.037506	3.035639	388.947856
4324.000000	3.227132	3.032257	150.589264
4325.000000	3.066040	3.216434	342.381332
4326.000000	3.293121	3.111590	341.314143
4327.000000	2.858969	2.607488	194.409445
4328.000000	3.251691	3.171762	397.678670
4329.000000	2.950934	2.761992	378.819623
4330.000000	3.471911	3.488167	250.766074
4331.000000	2.585888	2.623726	486.868656
4332.000000	3.074411	2.940293	345.978097
4333.000000	2.950976	3.003210	585.139962
4334.000000	3.550366	3.705908	530.305579
4335.000000	2.783933	2.941998	268.304996
4336.000000	2.976626	3.062056	469.175475
4337.000000	3.584197	3.208625	505.225785
4338.000000	3.248178	3.136257	234.440402
4339.000000	2.790049	2.317111	669.209139
4340.000000	3.375252	3.084436	452.759031
4341.000000	5.028664	4.426061	349.260868
4342.000000	3.166856	2.886704	653.951486
4343.000000	3.445635	3.154648	433.241116
4344.000000	3.815057	3.619355	366.288536
4345.000000	2.580257	2.621875	527.187418
4346.000000	2.723070	2.766052	291.737869
4347.000000	3.729096	4.122596	334.089907
4348.000000	3.616719	3.308839	450.928535
4349.000000	3.351225	3.448306	296.734050
4350.000000	3.443780	3.359391	419.820152
4351.000000	2.571058	2.485250	371.256124
4352.000000	2.704486	2.954444	255.278944
4353.000000	2.364014	2.301235	437.802176
4354.000000	4.758889	4.603130	407.662915
4355.000000	3.994367	3.283611	213.288385
4356.000000	2.522408	2.169537	417.237968
4357.000000	2.404113	2.189946	184.611792
4358.000000	2.585970	2.771511	228.434777
4359.000000	3.820426	3.768640	332.233600
4360.000000	2.954430	2.755561	217.036332
4361.000000	2.135384	2.083712	214.991615
4362.000000	2.475264	2.543145	251.561562
4363.000000	2.420036	2.388974	76.857521
4364.000000	4.477662	4.188664	226.493520
4365.000000	2.325494	2.281343	206.557299
4366.000000	2.393532	2.480479	161.915131
4367.000000	6.498332	5.063796	193.235881
4368.000000	6.617297	5.332374	199.623658
4369.000000	3.843850	3.894059	153.331122
4370.000000	2.827159	2.457920	266.863358
4371.000000	7.328485	6.181203	174.488206
4372.000000	5.293096	4.534957	130.054815
4373.000000	2.249699	1.992959	193.576748
4374.000000	3.132935	3.090668	110.348094
4375.000000	3.494279	3.220465	168.587017
4376.000000	4.893046	4.265141	95.349135
4377.000000	3.731637	3.427996	56.576093
4378.000000	5.117488	4.910596	85.342230
4379.000000	6.167572	5.069076	116.294708
4380.000000	4.457041	3.994424	74.589138
4381.000000	2.628659	2.490331	75.044979
4382.000000	5.286063	4.303974	54.591944
4383.000000	5.307817	4.396657	58.018152
4384.000000	3.213208	2.991067	83.867187
4385.000000	2.257428	2.286613	19.463211
4386.000000	2.257553	2.626221	50.517005
4387.000000	3.157851	3.257167	64.917668
4388.000000	2.575532	2.793585	39.285839
4389.000000	2.878600	3.034813	46.091696
4390.000000	2.202993	2.142027	86.281754
4391.000000	2.573021	2.462124	40.210787
4392.000000	2.419901	2.193808	80.578102
4393.000000	2.516385	2.480099	86.144152
4394.000000	2.574933	2.761251	86.377747
4395.000000	2.466291	2.341903	96.447323
4396.000000	2.462337	2.277695	78.379493
4397.000000	2.402076	2.239848	104.563103
4398.000000	3.407132	3.137853	100.542410
4399.000000	2.557370	2.628593	81.265517
4400.000000	2.698684	2.379565	148.116314
4401.000000	2.665810	2.431704	192.818081
4402.000000	2.611894	2.741764	102.762538
4403.000000	3.084348	2.446632	212.089307
4404.000000	2.716245	2.869024	190.548175
4405.000000	2.614928	2.642118	111.387563
4406.000000	3.218135	2.646436	221.093931
4407.000000	3.538995	3.780266	139.581990
4408.000000	3.024524	2.894306	150.064056
4409.000000	5.406191	4.682612	118.260856
4410.000000	2.658907	2.686319	77.618542
4411.000000	3.125596	2.919734	135.680380
4412.000000	3.436337	3.294828	202.451358
4413.000000	2.902313	2.629735	107.637870
4414.000000	2.977777	2.841455	245.737390
4415.000000	3.188029	3.253937	170.682097
4416.000000	2.949028	2.841638	62.103036
4417.000000	3.331877	2.995048	153.706294
4418.000000	2.774083	2.566989	151.176690
4419.000000	3.568401	3.343064	111.924162
4420.000000	3.545616	3.663902	205.839283
4421.000000	3.229917	3.083632	79.435970
4422.000000	3.249476	3.182713	157.705205
4423.000000	3.765689	3.598283	192.750198
4424.000000	3.795695	3.574632	63.909596
4425.000000	3.989041	4.163590	102.422530
4426.000000	3.967240	3.706612	103.499031
4427.000000	3.337234	3.458471	45.526329
4428.000000	3.622808	3.552753	117.237227
4429.000000	4.052157	3.708685	63.634482
4430.000000	6.704708	5.936450	113.414840
4431.000000	7.419927	6.175573	182.754368
4432.000000	3.555174	3.606839	91.422804
4433.000000	6.371004	5.670428	94.937753
4434.000000	3.549626	3.537122	56.547447
4435.000000	3.604555	3.631759	86.623232
4436.000000	3.317823	3.321464	105.701409
4437.000000	4.586149	4.426554	105.208326
4438.000000	4.405642	4.039041	64.450034
4439.000000	6.963670	6.104955	104.969245
4440.000000	4.406968	4.152272	115.176260
4441.000000	4.980804	4.699409	94.486295
4442.000000	3.803814	3.258023	122.975905
4443.000000	4.573223	4.322970	148.978779
4444.000000	3.627396	3.565468	122.502606
4445.000000	3.965673	4.314040	218.764675
4446.000000	3.706143	3.536459	95.735414
4447.000000	4.027142	4.075205	105.467968
4448.000000	3.747153	3.788085	189.820431
4449.000000	5.044015	4.995261	97.694432
4450.000000	5.585351	5.027051	123.847292
4451.000000	4.229661	4.094811	139.267950
4452.000000	5.239962	5.217863	74.959381
4453.000000	6.080895	5.378860	133.317611
4454.000000	4.937749	5.121895	184.590676
4455.000000	3.895524	3.879195	76.537937
4456.000000	4.642860	4.892041	123.254083
4457.000000	4.472369	4.226676	147.691733
4458.000000	4.254115	3.908728	131.535449
4459.000000	7.151001	5.810044	77.255547
4460.000000	4.865736	4.803767	59.733234
4461.000000	4.258805	4.394710	88.260277
4462.000000	5.347966	5.353510	203.200748
4463.000000	6.810746	6.975353	85.057264
4464.000000	8.317416	6.847808	128.383668
4465.000000	4.543734	4.336383	72.786816
4466.000000	5.051378	6.007482	81.616381
4467.000000	5.053360	5.015956	206.468473
4468.000000	6.748881	7.002757	87.861866
4469.000000	5.599490	5.472425	187.608822
4470.000000	6.202148	5.967800	207.478869
4471.000000	6.865355	6.470859	85.293297
4472.000000	5.563266	5.541510	147.555764
4473.000000	8.375548	7.866412	148.788610
4474.000000	4.662601	4.517107	78.272968
4475.000000	4.975477	4.244686	169.134108
4476.000000	6.802737	7.438469	171.413725
4477.000000	6.922479	7.385686	64.864555
4478.000000	9.197965	8.051746	134.280816
4479.000000	6.596639	6.827883	79.820241
4480.000000	5.907067	5.682616	45.595585
4481.000000	7.595322	7.885781	72.444901
4482.000000	5.956938	5.749161	73.660199
4483.000000	7.492845	8.108166	87.396157
4484.000000	6.597304	6.423686	102.965114
4485.000000	6.886902	6.508019	78.771736
4486.000000	7.177924	8.340391	48.873542
4487.000000	5.439660	4.971392	53.093376
4488.000000	5.581816	5.786648	26.563813
4489.000000	9.552735	8.818715	85.263832
4490.000000	6.235119	5.312102	104.861020
4491.000000	9.824245	9.112745	114.787126
4492.000000	8.108596	8.096013	76.242853
4493.000000	7.137008	6.577432	112.801239
4494.000000	7.161798	6.556099	43.645604
4495.000000	9.598532	9.929438	56.206098
4496.000000	10.115433	8.973998	78.232860
4497.000000	10.287642	9.333368	88.322264
4498.000000	9.675197	9.302999	132.504221
4499.000000	6.920862	6.157023	47.201033
4500.000000	7.176193	7.232614	50.031872
4501.000000	8.008057	7.823801	80.964199
4502.000000	8.021887	7.506135	69.801396
4503.000000	7.056836	7.953231	44.629552
4504.000000	11.708673	10.720927	83.186595
4505.000000	7.991390	8.354069	68.525467
4506.000000	6.987812	7.094107	109.127337
4507.000000	8.058358	9.379270	93.248403
4508.000000	8.270308	7.514027	80.317561
4509.000000	6.717730	6.450779	109.394121
4510.000000	8.508483	7.836064	79.730480
4511.000000	8.153553	7.769901	127.437803
4512.000000	7.661766	7.335065	75.013396
4513.000000	12.492667	11.632770	142.227309
4514.000000	8.299294	8.340614	98.719127
4515.000000	7.237568	7.250602	111.600454
4516.000000	8.954241	10.061840	82.949480
4517.000000	8.341832	7.939879	120.093816
4518.000000	11.138463	10.526400	59.540983
4519.000000	9.827673	9.880056	75.481962
4520.000000	9.272243	10.070114	53.858058
4521.000000	7.758412	7.109123	45.284954
4522.000000	12.594906	13.925275	97.919083
4523.000000	9.103411	8.022192	149.039029
4524.000000	12.748448	10.994308	117.747060
4525.000000	10.218377	11.330063	173.524369
4526.000000	8.643852	8.134120	167.854150
4527.000000	9.831439	9.380391	69.279717
4528.000000	9.769113	9.460246	268.830736
4529.000000	13.013372	12.293282	102.507583
4530.000000	11.461435	10.384150	95.951983
4531.000000	11.651766	11.089065	160.156179
4532.000000	10.899236	11.148632	86.763011
4533.000000	12.224949	12.568011	160.582309
4534.000000	9.695971	9.686192	135.668287
4535.000000	10.972645	10.303501	93.282354
4536.000000	10.207751	12.500645	89.722470
4537.000000	13.430969	13.032523	108.786034
4538.000000	11.945659	11.870167	73.707397
4539.000000	12.735762	12.159844	61.475659
4540.000000	12.175197	12.166791	129.497207
4541.000000	10.542599	9.605037	52.929742
4542.000000	15.820223	14.367162	109.705477
4543.000000	11.328611	11.938856	74.873236
4544.000000	13.483538	13.235400	93.657456
4545.000000	12.845291	11.427571	82.435496
4546.000000	11.757814	14.447141	50.442052
4547.000000	14.261542	13.213170	69.050188
4548.000000	13.862579	13.211956	98.501908
4549.000000	11.831249	11.227867	70.859611
4550.000000	12.757706	13.558265	114.847326
4551.000000	14.040671	13.931639	81.109661
4552.000000	12.279113	11.516522	92.679740
4553.000000	13.799893	12.907937	74.591984
4554.000000	10.263784	10.325387	44.318474
4555.000000	12.593883	12.651931	48.117412
4556.000000	13.624832	13.502573	46.204363
4557.000000	13.888254	12.130732	65.710291
4558.000000	14.784438	14.687549	48.721032
4559.000000	12.778195	12.667561	66.943346
4560.000000	12.215224	12.760689	81.676150
4561.000000	11.976196	12.164805	68.724039
4562.000000	14.253887	13.886839	100.815562
4563.000000	13.361252	11.677271	61.614960
4564.000000	16.457514	15.589463	88.149855
4565.000000	15.018012	15.959775	86.479557
4566.000000	16.009662	15.442029	41.219292
4567.000000	14.756906	15.559485	45.687453
4568.000000	15.596299	14.312603	60.534172
4569.000000	15.147640	16.013882	64.929442
4570.000000	17.211925	18.550065	65.012813
4571.000000	15.493404	15.425715	56.461937
4572.000000	19.136530	19.979413	103.672515
4573.000000	15.920222	16.968381	89.795967
4574.000000	16.953575	15.359397	98.815562
4575.000000	14.467399	13.838921	84.111055
4576.000000	19.045199	17.199374	65.178732
4577.000000	15.681897	15.075485	75.839728
4578.000000	16.510115	14.781797	137.244328
4579.000000	16.505860	16.011684	114.959219
4580.000000	15.885564	16.793630	89.617298
4581.000000	16.671659	18.456279	118.759263
4582.000000	16.519555	17.253933	88.925136
4583.000000	17.115345	14.465117	94.512129
4584.000000	18.323073	15.701883	95.546526
4585.000000	20.157950	20.156147	74.515191
4586.000000	18.130071	19.977440	69.906909
4587.000000	20.149972	20.582872	107.227154
4588.000000	20.034960	19.507345	158.751928
4589.000000	22.267636	20.591107	81.834803
4590.000000	19.133210	18.385957	93.619658
4591.000000	18.215462	19.728586	200.818188
4592.000000	23.947456	20.917537	79.996586
4593.000000	22.085891	22.040082	131.598651
4594.000000	21.040248	20.127764	68.162907
4595.000000	19.338856	18.940212	166.791693
4596.000000	18.031736	19.174566	134.977424
4597.000000	20.732413	19.861950	86.229957
4598.000000	21.348278	19.339484	89.502370
4599.000000	21.824426	23.576502	91.073526
4600.000000	23.507222	22.688436	79.290281
4601.000000	20.971812	21.716284	84.994430
4602.000000	22.514433	21.777476	99.194793
4603.000000	23.768174	21.603453	219.790278
4604.000000	24.046405	25.390543	64.227943
4605.000000	23.604253	21.237063	100.275020
4606.000000	31.270982	29.942254	199.301785
4607.000000	28.050842	28.485934	201.834349
4608.000000	26.857860	25.382609	141.703988
4609.000000	25.165894	26.066535	155.546562
4610.000000	25.945484	26.218066	81.738025
4611.000000	23.934135	25.670730	108.921687
4612.000000	24.905168	24.763779	78.191026
4613.000000	25.967753	23.790653	168.985388
4614.000000	27.990427	26.617703	196.210626
4615.000000	26.459618	27.690321	114.439100
4616.000000	30.326703	29.331271	107.401092
4617.000000	30.858672	27.532047	120.934855
4618.000000	34.542919	33.859872	135.916053
4619.000000	31.644964	30.305650	131.524612
4620.000000	29.021497	26.522282	205.280444
4621.000000	37.028989	37.365981	149.154453
4622.000000	37.550974	37.148563	165.150545
4623.000000	37.100847	37.640323	138.286065
4624.000000	29.162930	26.168894	333.860129
4625.000000	30.720541	30.090701	229.527407
4626.000000	35.390787	33.922030	422.039291
4627.000000	37.762687	39.364812	134.601925
4628.000000	36.822059	37.179080	243.890136
4629.000000	34.928151	33.316128	220.626417
4630.000000	34.234653	33.123085	225.657076
4631.000000	34.688877	32.317968	289.760957
4632.000000	31.429259	30.889170	178.796188
4633.000000	38.092528	37.423542	355.330985
4634.000000	33.598606	34.878571	202.903390
4635.000000	40.009717	38.047397	243.843524
4636.000000	39.574606	41.903574	257.644683
4637.000000	47.503585	42.733143	158.835948
4638.000000	42.731360	43.487953	206.825864
4639.000000	40.870789	38.075738	219.650021
4640.000000	40.327382	45.158864	156.166111
4641.000000	43.053118	48.857362	177.043034
4642.000000	48.863832	53.828321	241.089179
4643.000000	50.206589	48.229697	132.899638
4644.000000	43.971391	41.819804	396.045613
4645.000000	39.685770	40.277323	149.687264
4646.000000	47.249071	52.517205	200.427664
4647.000000	46.041871	45.690420	214.580364
4648.000000	47.522963	47.823476	172.614089
4649.000000	52.642609	49.747457	164.477335
4650.000000	46.665088	46.405680	211.432996
4651.000000	52.401394	62.257748	307.040009
4652.000000	48.442371	47.896568	230.695279
4653.000000	47.926847	47.039057	219.674838
4654.000000	50.147613	55.720588	273.018289
4655.000000	54.301852	56.830274	335.026115
4656.000000	50.139461	47.150968	205.212635
4657.000000	56.219961	53.101970	182.562306
4658.000000	51.488178	52.398145	276.810498
4659.000000	53.903839	45.351107	223.967905
4660.000000	62.502711	61.987215	503.761665
4661.000000	65.046559	64.193904	265.778595
4662.000000	57.675807	53.418399	397.162937
4663.000000	65.332736	64.071695	331.461004
4664.000000	65.770719	69.741370	333.672680
4665.000000	67.093756	69.148843	519.918564
4666.000000	69.131074	72.103203	336.897601
4667.000000	62.443414	64.091108	233.705408
4668.000000	76.699663	84.961145	365.797267
4669.000000	62.042981	58.526758	536.908907
4670.000000	64.523592	68.448422	299.266373
4671.000000	71.517935	69.461555	161.875939
4672.000000	70.583036	64.998957	264.226256
4673.000000	70.850989	63.005556	417.100582
4674.000000	72.732111	66.023110	404.442987
4675.000000	69.781654	77.598190	412.019164
4676.000000	77.704847	76.737429	305.283749
4677.000000	71.286439	68.819213	347.440803
4678.000000	76.582208	78.548600	279.658238
4679.000000	83.802739	91.476785	300.674236
4680.000000	74.446433	74.762515	228.029051
4681.000000	80.248535	89.482353	282.446869
4682.000000	72.805832	73.837948	353.010947
4683.000000	83.468368	83.178860	330.052143
4684.000000	72.710290	72.427332	284.168527
4685.000000	69.142575	71.851958	271.769205
4686.000000	74.163902	72.030766	422.348237
4687.000000	72.029134	59.866465	450.646359
4688.000000	75.155667	76.988975	341.117762
4689.000000	81.621387	86.946127	878.038068
4690.000000	77.408529	74.950657	282.954816
4691.000000	76.730884	75.126696	275.317609
4692.000000	74.080014	65.327767	352.076204
4693.000000	69.402957	67.277203	372.687298
4694.000000	83.267545	81.247109	252.712520
4695.000000	68.039765	63.636848	275.004975
4696.000000	79.546297	86.371582	357.093917
4697.000000	83.075171	71.787034	268.589350
4698.000000	65.328499	69.922483	471.996712
4699.000000	76.875434	78.291255	541.334967
4700.000000	79.368082	74.382970	364.431128
4701.000000	75.286868	82.520543	237.362665
4702.000000	68.416874	67.061061	372.915878
4703.000000	73.418561	77.166692	285.108100
4704.000000	78.237244	82.269292	606.005997
4705.000000	73.919417	73.933359	464.929191
4706.000000	73.208620	79.298566	225.725970
4707.000000	74.319032	68.694968	505.758233
4708.000000	77.389808	76.775421	447.270552
4709.000000	74.705052	64.240113	229.384607
4710.000000	82.247468	82.544459	533.221241
4711.000000	80.159883	75.985331	542.430499
4712.000000	72.141072	67.607289	465.823694
4713.000000	65.069910	63.059468	321.041569
4714.000000	64.702156	61.368018	341.913170
4715.000000	72.402293	73.129780	338.623919
4716.000000	69.714090	68.772497	558.130380
4717.000000	73.623329	66.216345	419.931124
4718.000000	69.370754	61.353582	447.002942
4719.000000	69.815985	75.000753	353.306893
4720.000000	67.109575	63.899885	420.481513
4721.000000	59.219707	59.036329	753.371013
4722.000000	72.708915	63.550283	464.943357
4723.000000	57.116785	50.007689	454.553121
4724.000000	63.255207	60.245305	332.309225
4725.000000	62.334532	57.202025	252.888973
4726.000000	56.305966	54.014887	225.107854
4727.000000	61.051822	61.461089	565.799256
4728.000000	57.023103	55.520079	277.430231
4729.000000	55.913412	49.393532	570.992525
4730.000000	62.378017	62.614742	357.361846
4731.000000	68.180739	65.082817	303.350196
4732.000000	74.701026	66.871671	610.965437
4733.000000	64.371984	67.013228	754.231248
4734.000000	61.504549	60.806814	256.413204
4735.000000	52.982353	52.222129	248.955464
4736.000000	55.674428	56.763197	288.350827
4737.000000	58.836315	59.938597	284.663866
4738.000000	55.342798	48.502223	180.200780
4739.000000	64.586274	65.018697	243.997489
4740.000000	56.998637	53.883723	228.691466
4741.000000	66.057358	61.496175	410.243416
4742.000000	53.102017	59.054090	284.282888
4743.000000	58.941001	59.892191	320.962658
4744.000000	47.788553	51.044444	313.147762
4745.000000	49.879192	44.314795	259.571257
4746.000000	49.508896	49.798124	272.610738
4747.000000	60.011848	64.901388	183.343609
4748.000000	51.155497	45.343045	327.645612
4749.000000	57.849881	63.086917	272.975047
4750.000000	56.347561	60.187532	449.742083
4751.000000	51.077881	55.507090	187.180928
4752.000000	52.380594	52.043342	233.484243
4753.000000	55.909783	56.986029	689.154695
4754.000000	56.812765	55.684550	407.607867
4755.000000	51.162022	52.495622	346.788042
4756.000000	55.158840	55.174774	205.697443
4757.000000	50.130406	48.539510	361.023268
4758.000000	55.719191	57.174911	657.811993
4759.000000	56.737521	56.101434	667.247308
4760.000000	56.069829	54.054149	256.978287
4761.000000	59.972117	59.560873	728.304271
4762.000000	49.877282	49.665288	310.223507
4763.000000	53.080692	50.534710	686.840013
4764.000000	56.668971	60.101237	882.463250
4765.000000	42.415419	42.075214	1298.555887
4766.000000	54.417491	52.404243	719.250742
4767.000000	46.609526	42.386312	1312.914106
4768.000000	49.200462	45.985514	844.762127
4769.000000	49.872664	49.436849	921.677077
4770.000000	43.298178	39.480254	1353.237586
4771.000000	43.798075	42.652739	902.843831
4772.000000	47.202812	43.153640	1181.674524
4773.000000	49.304542	41.775751	1491.809314
4774.000000	42.665918	46.304446	315.152692
4775.000000	41.198466	40.695598	1515.491538
4776.000000	42.371086	39.469544	1898.438779
4777.000000	43.291793	42.919286	1056.650579
4778.000000	37.800619	40.356443	2246.651135
4779.000000	38.049538	36.439239	1177.082981
4780.000000	39.003613	38.480073	883.630644
4781.000000	39.003348	40.533146	1982.130672
4782.000000	39.687266	41.967617	1289.711126
4783.000000	37.199820	36.028142	1227.083164
4784.000000	37.579154	36.677729	1716.108450
4785.000000	40.174700	38.479344	1214.970186
4786.000000	40.930021	36.388567	1915.034868
4787.000000	40.234126	41.538460	2427.423134
4788.000000	36.620061	33.911355	980.854202
4789.000000	33.063445	33.810229	1999.877544
4790.000000	33.262805	31.908089	1450.547755
4791.000000	33.375796	29.643729	1007.324997
4792.000000	40.293055	37.603430	2404.167775
4793.000000	36.891590	39.437871	1091.437900
4794.000000	34.168857	33.054894	1137.678224
4795.000000	29.074265	29.723003	1827.135999
4796.000000	38.046702	37.763199	613.840093
4797.000000	32.771815	37.683088	1272.438244
4798.000000	33.490895	36.356613	1322.882089
4799.000000	36.375660	35.107736	741.264564
4800.000000	28.635023	29.783345	1351.072114
4801.000000	30.159584	32.538863	651.566414
4802.000000	33.202274	33.279740	513.641185
4803.000000	32.312002	31.532799	1173.815010
4804.000000	30.997667	32.287669	1040.159513
4805.000000	28.534071	25.149856	862.092618
4806.000000	29.547133	29.892675	1350.351612
4807.000000	30.211322	30.383700	885.200918
4808.000000	29.168241	24.541623	940.018019
4809.000000	26.160202	25.265072	2085.654113
4810.000000	31.049261	35.062395	928.687937
4811.000000	28.288874	28.278344	1356.751784
4812.000000	26.341616	26.206699	2222.200751
4813.000000	29.105752	28.794755	742.432460
4814.000000	31.290160	31.712150	1251.768006
4815.000000	26.737438	26.432342	1172.198738
4816.000000	27.459675	25.266954	917.037684
4817.000000	29.086891	29.542795	1737.445087
4818.000000	25.006111	25.052909	944.168294
4819.000000	27.916305	26.450920	1064.794995
4820.000000	24.865479	25.046170	1817.680425
4821.000000	25.048051	24.284200	1165.933590
4822.000000	27.966357	26.092191	1363.345667
4823.000000	29.678000	27.561873	1623.761406
4824.000000	22.956320	24.228076	872.764854
4825.000000	22.755574	26.594081	1664.072343
4826.000000	25.431105	26.312027	1525.543163
4827.000000	27.439255	27.432996	879.980431
4828.000000	24.621333	27.481525	1807.142199
4829.000000	30.394025	27.085524	1358.360446
4830.000000	26.103452	25.655628	1113.557229
4831.000000	24.508649	25.777353	1441.315641
4832.000000	27.405419	28.776588	1166.568663
4833.000000	23.260818	22.551555	1436.743958
4834.000000	25.191988	22.015208	1891.015568
4835.000000	22.474495	20.196766	1006.443107
4836.000000	23.403278	24.930459	1629.257390
4837.000000	22.623669	21.389856	1709.232426
4838.000000	23.434117	24.966907	966.698194
4839.000000	24.252548	22.898984	2021.084319
4840.000000	25.043191	26.293020	1251.827468
4841.000000	23.644657	22.372989	1183.574707
4842.000000	25.754605	23.293690	2090.770701
4843.000000	26.300737	22.241674	1241.149181
4844.000000	24.783614	25.227100	1140.130003
4845.000000	28.216881	27.045752	1566.272537
4846.000000	23.951783	23.407193	612.989880
4847.000000	23.603143	24.229623	976.093285
4848.000000	22.958815	27.228567	1421.573771
4849.000000	25.114538	21.232659	988.219817
4850.000000	22.508673	24.805042	1609.841948
4851.000000	20.741396	20.596079	1007.279720
4852.000000	21.501876	21.100689	882.068567
4853.000000	20.613748	19.190367	1049.470230
4854.000000	21.976111	22.359630	637.847133
4855.000000	22.890278	23.052932	794.262269
4856.000000	21.910279	25.250427	962.551395
4857.000000	24.665205	25.736360	522.363343
4858.000000	23.875774	23.728363	600.266070
4859.000000	21.729803	20.453759	650.106946
4860.000000	20.934695	18.393318	256.170631
4861.000000	22.295371	26.174517	467.960078
4862.000000	22.634386	21.921477	728.784096
4863.000000	21.852025	19.600779	239.023799
4864.000000	21.889256	21.596208	388.479705
4865.000000	21.650589	20.692602	636.504955
4866.000000	22.837260	22.903158	338.822636
4867.000000	24.605416	22.710136	664.758228
4868.000000	22.183480	24.161781	363.945768
4869.000000	22.384050	21.253696	328.946148
4870.000000	20.976623	20.972764	943.382124
4871.000000	21.438514	20.362130	406.793889
4872.000000	20.419253	20.944809	354.845790
4873.000000	20.901766	19.478025	496.786459
4874.000000	22.641173	21.603920	263.056217
4875.000000	22.811458	25.364675	405.944443
4876.000000	23.561059	22.877613	538.043856
4877.000000	20.580818	20.040158	324.903140
4878.000000	21.801795	18.970663	342.476836
4879.000000	21.604454	21.638668	373.215250
4880.000000	17.181835	17.921127	144.451126
4881.000000	23.029378	25.591347	405.564963
4882.000000	21.137422	19.554117	270.492136
4883.000000	21.305225	19.168421	351.049504
4884.000000	19.780907	19.019110	351.185253
4885.000000	20.802011	21.016847	206.938793
4886.000000	20.001073	19.539156	260.906000
4887.000000	21.284983	19.922953	267.367485
4888.000000	22.576150	21.932070	220.326205
4889.000000	18.572840	19.204683	218.846837
4890.000000	20.925026	22.195020	264.816728
4891.000000	18.299022	19.542735	320.452695
4892.000000	16.711455	16.683055	227.974123
4893.000000	19.398987	21.055344	171.404767
4894.000000	19.150850	18.629479	201.538795
4895.000000	20.704508	19.657056	296.828915
4896.000000	20.881484	23.076205	301.642781
4897.000000	18.894510	18.572921	271.602469
4898.000000	23.264752	22.548955	480.222484
4899.000000	19.091385	20.030315	110.339011
4900.000000	19.328208	20.746380	285.802580
4901.000000	23.336056	25.092476	341.509651
4902.000000	19.761256	19.987742	215.571515
4903.000000	22.706063	21.170931	104.024902
4904.000000	21.156144	20.734564	211.253446
4905.000000	22.057546	21.062783	157.076959
4906.000000	20.100182	22.921497	390.162420
4907.000000	23.933045	23.868060	224.651454
4908.000000	20.801504	23.072558	310.445139
4909.000000	19.989074	19.114999	263.927926
4910.000000	22.633520	21.722745	173.809064
4911.000000	24.318041	25.301129	209.219089
4912.000000	23.827623	22.693278	146.110956
4913.000000	22.131862	24.991894	145.173685
4914.000000	19.443349	18.302959	432.007225
4915.000000	21.178089	21.420228	252.724032
4916.000000	25.348438	25.308279	77.058101
4917.000000	24.951107	24.686732	366.803271
4918.000000	26.528698	25.051893	253.120999
4919.000000	22.998615	23.545018	275.609936
4920.000000	24.103576	23.641730	135.127325
4921.000000	23.877537	23.339867	163.594990
4922.000000	24.340213	22.396179	208.110659
4923.000000	22.937872	23.844327	141.278300
4924.000000	23.077189	22.749256	158.347120
4925.000000	22.016531	22.686903	197.795768
4926.000000	26.810321	27.994543	100.833011
4927.000000	23.267774	23.682272	128.384861
4928.000000	25.296912	25.820368	184.361607
4929.000000	27.554246	26.317913	176.677374
4930.000000	26.179428	26.160850	80.487509
4931.000000	28.893438	28.975940	103.724800
4932.000000	25.499286	24.513941	204.096755
4933.000000	24.652260	25.251176	276.114084
4934.000000	25.948661	23.528051	168.133105
4935.000000	28.365894	28.894196	171.311751
4936.000000	26.674128	25.957213	138.528854
4937.000000	25.194241	24.902873	397.845707
4938.000000	24.259414	22.072274	74.209489
4939.000000	27.616675	27.118056	279.375957
4940.000000	26.630666	29.050125	406.690852
4941.000000	28.862852	30.515695	281.390887
4942.000000	30.820928	28.204000	418.766280
4943.000000	28.872641	29.299292	149.479767
4944.000000	29.466082	33.400392	306.423253
4945.000000	29.634307	27.475379	552.727800
4946.000000	29.096035	29.740053	123.282508
4947.000000	27.608749	26.798160	137.514735
4948.000000	34.293094	34.802009	272.012119
4949.000000	32.129176	33.571907	235.383254
4950.000000	30.667752	31.159806	370.027137
4951.000000	28.576107	30.686062	257.018705
4952.000000	28.459673	28.532986	207.701373
4953.000000	28.670052	31.694515	391.266571
4954.000000	32.027609	27.980289	231.693259
4955.000000	29.500683	27.734769	307.127110
4956.000000	30.297410	33.835783	225.739702
4957.000000	32.414447	30.632341	403.622809
4958.000000	34.571282	32.807879	652.974903
4959.000000	35.000197	34.303489	454.765672
4960.000000	32.930786	32.095680	396.048046
4961.000000	34.151880	32.227696	246.898442
4962.000000	40.272358	41.271404	466.798485
4963.000000	32.332581	34.989050	457.729688
4964.000000	36.870601	36.790205	402.247615
4965.000000	33.864152	32.766123	284.027526
4966.000000	40.791654	41.634580	342.457976
4967.000000	34.162247	28.537497	369.300887
4968.000000	36.631687	32.857373	239.375253
4969.000000	44.119226	41.534897	301.734849
4970.000000	38.958932	37.330659	410.407222
4971.000000	39.954521	38.545493	563.531821
4972.000000	39.573456	38.417056	325.240393
4973.000000	39.191643	38.416083	518.240296
4974.000000	41.669383	38.013405	203.778757
4975.000000	38.899964	41.797683	337.354327
4976.000000	42.920940	42.147227	456.246044
4977.000000	45.585976	47.283069	173.447256
4978.000000	46.218929	40.927500	175.776871
4979.000000	39.448607	38.265056	204.038474
4980.000000	38.497362	39.414939	432.180934
4981.000000	37.270212	37.934383	423.503754
4982.000000	46.170700	47.957971	537.414121
4983.000000	46.707677	44.400868	726.498916
4984.000000	45.907960	47.119123	616.813213
4985.000000	52.561336	54.105313	163.757836
4986.000000	51.558577	54.607837	233.602093
4987.000000	41.982046	44.639041	711.440476
4988.000000	58.394494	59.377333	252.230384
4989.000000	51.884569	52.510242	258.238145
4990.000000	42.682356	42.458268	821.178981
4991.000000	51.414304	49.502362	195.565095
4992.000000	48.863445	50.066425	474.062969
4993.000000	46.550282	49.302636	232.355155
4994.000000	57.389518	62.219169	212.164158
4995.000000	45.100697	40.434370	568.691767
4996.000000	49.739260	43.965281	300.754148
4997.000000	54.952917	54.545713	300.344724
4998.000000	55.770176	66.393458	640.055188
4999.000000	58.215397	61.640706	273.626726
5000.000000	54.948564	53.194346	203.145575
5001.000000	58.262137	61.532204	225.963845
5002.000000	54.863324	51.608165	482.650927
5003.000000	58.585058	56.355039	228.958176
5004.000000	58.124733	53.609360	388.359098
5005.000000	60.227464	63.359071	194.667064
5006.000000	57.660203	57.647019	518.021181
5007.000000	64.400033	65.348533	279.426870
5008.000000	61.222795	56.517231	200.935631
5009.000000	56.984387	60.645835	316.774304
5010.000000	68.657020	67.301627	415.118826
5011.000000	64.283770	57.368719	375.550817
5012.000000	73.402363	72.011292	354.532622
5013.000000	61.616818	54.086305	420.437191
5014.000000	63.070406	59.475314	495.576266
5015.000000	74.538600	77.194077	518.479135
5016.000000	78.385062	83.204742	397.481813
5017.000000	71.120654	75.843366	495.290049
5018.000000	63.846946	59.318847	296.335927
5019.000000	70.487208	77.368508	268.017843
5020.000000	73.219374	66.274566	274.801902
5021.000000	79.833913	90.048030	303.113726
5022.000000	64.557175	66.024435	385.097827
5023.000000	74.121587	70.328311	352.872510
5024.000000	78.910289	90.105976	662.310505
5025.000000	80.455980	79.948659	283.972253
5026.000000	68.383436	65.157405	347.877990
5027.000000	78.280660	65.267136	491.192965
5028.000000	83.031881	78.925650	674.146950
5029.000000	73.573056	69.591536	771.213705
5030.000000	86.898777	85.637760	610.407485
5031.000000	88.714716	74.481473	983.921569
5032.000000	92.284307	101.045395	482.855823
5033.000000	73.924907	63.148116	630.598353
5034.000000	87.519119	85.298962	774.278578
5035.000000	78.456808	72.671891	263.124794
5036.000000	92.745040	90.022819	347.631251
5037.000000	104.503290	106.471144	670.402845
5038.000000	83.023494	87.826942	358.158369
5039.000000	97.082359	89.833735	502.786819
5040.000000	94.131583	93.318759	906.880646
5041.000000	96.987953	99.973229	735.243498
5042.000000	96.622651	101.433447	372.901640
5043.000000	97.489859	110.527462	570.246470
5044.000000	93.814317	94.895061	442.414766
5045.000000	95.818189	94.232704	405.129889
5046.000000	111.574508	102.553888	482.017417
5047.000000	102.031127	96.829374	608.612360
5048.000000	110.813540	112.339708	536.962322
5049.000000	93.700421	87.019498	507.800806
5050.000000	110.893098	137.889550	488.361053
5051.000000	101.545170	91.986775	439.450973
5052.000000	96.881755	92.341116	863.653270
5053.000000	105.343792	111.079387	599.920332
5054.000000	123.104268	111.559034	364.519656
5055.000000	110.714128	103.396031	703.460521
5056.000000	101.798583	100.742326	351.641678
5057.000000	98.693976	95.072314	528.175778
5058.000000	123.909234	127.088937	296.866227
5059.000000	107.143958	102.740255	852.545753
5060.000000	119.729845	125.221010	421.737609
5061.000000	112.172898	119.146999	681.389001
5062.000000	99.415569	98.992057	511.457645
5063.000000	103.553826	101.643922	579.633643
5064.000000	124.145901	130.706265	470.181961
5065.000000	108.773509	128.203215	785.401684
5066.000000	125.188541	116.579174	1091.739855
5067.000000	125.777935	125.760429	449.945116
5068.000000	114.096008	104.025261	576.416941
5069.000000	116.633516	125.492846	731.732394
5070.000000	127.299977	123.209770	655.798936
5071.000000	114.322515	111.344020	425.463360
5072.000000	98.579925	95.096061	667.731930
5073.000000	106.112505	114.374498	499.934185
5074.000000	133.781188	126.062131	652.099005
5075.000000	118.351517	134.435685	738.014351
5076.000000	103.050803	101.191259	542.865995
5077.000000	110.319114	105.107957	856.004192
5078.000000	104.421439	92.240946	438.446974
5079.000000	104.330839	99.228640	378.723481
5080.000000	99.412269	106.007433	1128.361400
5081.000000	105.234006	107.548699	607.690401
5082.000000	99.885646	97.628626	438.054121
5083.000000	105.461462	97.581009	546.701873
5084.000000	104.238188	103.914240	594.072211
5085.000000	92.125146	87.851733	494.906955
5086.000000	97.963773	112.149712	810.830010
5087.000000	93.729055	96.107834	929.773626
5088.000000	105.378753	95.609806	435.842508
5089.000000	91.241408	87.774037	987.363107
5090.000000	99.581210	99.182363	253.571233
5091.000000	93.579015	91.801264	278.065121
5092.000000	92.605850	101.567643	415.829505
5093.000000	87.106252	87.470907	501.423242
5094.000000	95.914317	103.876001	510.262723
5095.000000	96.770116	96.450849	345.798489
5096.000000	88.115167	78.107187	530.568872
5097.000000	92.548606	91.600632	545.216374
5098.000000	99.217838	95.777567	418.724514
5099.000000	101.607380	108.708334	588.446024
5100.000000	76.221556	72.149918	408.273148
5101.000000	85.786323	75.130440	355.801698
5102.000000	85.495522	89.910252	413.593308
5103.000000	88.444663	91.514966	321.323287
5104.000000	75.108478	74.311559	433.629774
5105.000000	78.430897	82.481588	479.369852
5106.000000	81.451101	80.010666	297.915140
5107.000000	87.737388	82.583994	650.712146
5108.000000	70.989677	65.277122	284.735062
5109.000000	85.657393	78.282957	939.268104
5110.000000	72.022780	68.824290	281.896352
5111.000000	70.204753	65.340453	430.846580
5112.000000	86.646544	82.621674	427.939701
5113.000000	80.959387	74.793218	232.652821
5114.000000	73.156252	68.811411	506.305680
5115.000000	78.549227	79.698262	406.358185
5116.000000	70.888004	74.585083	380.534820
5117.000000	72.485609	69.839317	308.196859
5118.000000	72.972472	68.501327	997.975503
5119.000000	68.259300	65.440261	308.680434
5120.000000	86.069202	83.676498	452.962911
5121.000000	64.080586	64.349580	513.570759
5122.000000	69.247834	55.939414	345.807858
5123.000000	79.504355	75.351324	212.149800
5124.000000	72.994485	73.892306	290.509492
5125.000000	63.120316	62.873661	827.200839
5126.000000	63.591433	62.973498	252.660652
5127.000000	64.272680	60.070849	331.498128
5128.000000	71.650235	73.516487	344.313675
5129.000000	66.811035	76.022420	517.359143
5130.000000	63.173752	62.317847	285.547883
5131.000000	64.645845	65.874021	345.651953
5132.000000	61.633810	62.144079	347.403411
5133.000000	67.642233	63.047549	262.940921
5134.000000	71.458696	70.269560	784.529303
5135.000000	53.479853	50.729434	285.842758
5136.000000	64.469315	67.113231	266.161406
5137.000000	64.071993	56.285989	465.662511
5138.000000	62.205157	57.019002	315.895608
5139.000000	46.469335	44.389134	512.502670
5140.000000	57.739241	55.231372	226.546255
5141.000000	57.119056	56.245771	296.431297
5142.000000	66.217039	71.738492	310.684525
5143.000000	65.440794	65.396222	453.240211
5144.000000	60.067107	54.090888	412.393469
5145.000000	54.775753	53.788732	304.823479
5146.000000	56.082027	55.862796	282.041165
5147.000000	56.591644	61.104721	205.158541
5148.000000	57.691340	57.925166	206.483222
5149.000000	43.408926	51.944716	323.885542
5150.000000	57.395762	58.674508	200.321076
5151.000000	54.251905	55.293101	221.529712
5152.000000	52.465254	49.536589	535.501904
5153.000000	61.139378	58.014567	246.193809
5154.000000	52.831955	52.359271	273.645121
5155.000000	53.877092	62.020454	241.001467
5156.000000	55.874251	54.413948	167.380241
5157.000000	47.451500	45.185016	204.028246
5158.000000	48.910972	49.955250	245.822921
5159.000000	42.871121	41.328983	546.134060
5160.000000	36.736861	41.149476	217.176592
5161.000000	42.576542	39.556812	254.344828
5162.000000	39.492155	42.509833	258.857426
5163.000000	43.264864	47.112598	179.469264
5164.000000	37.714635	39.068489	254.326325
5165.000000	44.273843	44.536460	379.695285
5166.000000	41.485000	38.811701	169.199864
5167.000000	38.473871	35.886223	154.212274
5168.000000	44.710791	45.159463	266.068077
5169.000000	37.140885	38.218613	194.344657
5170.000000	34.529806	31.502871	176.223126
5171.000000	33.163974	32.235866	141.164230
5172.000000	37.026588	39.809378	140.987094
5173.000000	36.695767	33.199272	151.677042
5174.000000	34.063325	36.305979	198.757458
5175.000000	29.904827	26.984058	121.832669
5176.000000	30.059107	27.150379	231.885889
5177.000000	34.224336	35.999353	163.610342
5178.000000	28.425804	27.678796	162.802211
5179.000000	31.670449	26.961251	98.294103
5180.000000	32.504738	30.159180	162.559426
5181.000000	29.910983	30.399794	154.788764
5182.000000	30.043026	27.899217	140.814098
5183.000000	28.614875	33.487794	125.761291
5184.000000	25.417633	30.336335	136.684083
5185.000000	24.952579	22.021785	159.022700
5186.000000	24.109614	23.609601	102.181310
5187.000000	25.576642	24.325736	100.002257
5188.000000	26.289273	25.468366	107.450046
5189.000000	25.963495	25.540931	181.208357
5190.000000	25.165025	23.725806	102.958371
5191.000000	21.167286	22.191956	141.480940
5192.000000	23.455495	22.822394	73.520437
5193.000000	22.946935	19.652286	92.130530
5194.000000	22.838228	21.076553	125.915688
5195.000000	25.309078	26.519007	84.900820
5196.000000	22.193805	22.193601	116.623366
5197.000000	20.205683	18.604427	71.614378
5198.000000	23.081313	23.596876	228.314396
5199.000000	21.701146	20.236867	85.956428
5200.000000	20.511699	20.892557	87.684356
5201.000000	21.211979	21.469876	78.387044
5202.000000	18.304806	19.362333	65.871842
5203.000000	16.977422	15.186521	130.259216
5204.000000	20.483763	20.567602	78.913353
5205.000000	15.977134	14.877168	77.729618
5206.000000	19.817029	20.783442	132.405281
5207.000000	18.760789	18.172260	98.769666
5208.000000	20.101641	21.287529	82.636968
5209.000000	16.488403	17.418822	91.517513
5210.000000	17.172181	18.519688	100.948404
5211.000000	16.334526	15.116301	81.249409
5212.000000	17.428590	16.945949	70.243858
5213.000000	15.372109	13.390541	105.060265
5214.000000	17.306874	17.189551	67.594013
5215.000000	17.166792	14.742337	62.252750
5216.000000	17.591949	17.011647	119.668086
5217.000000	16.403202	15.942168	103.444241
5218.000000	15.403684	17.189782	61.916065
5219.000000	15.358667	14.235787	63.025836
5220.000000	15.371113	13.853435	81.778101
5221.000000	19.055780	18.472672	80.925203
5222.000000	14.254235	13.473268	136.224029
5223.000000	15.026821	15.518055	55.886412
5224.000000	16.053081	15.254460	84.823688
5225.000000	15.521351	14.440502	80.233586
5226.000000	15.146956	16.091660	79.084431
5227.000000	14.905547	14.897055	90.137798
5228.000000	15.487933	16.105918	99.300976
5229.000000	13.906558	14.148030	67.750970
5230.000000	14.484055	15.126049	60.206992
5231.000000	12.403432	12.355170	64.841181
5232.000000	15.349933	14.043314	71.144168
5233.000000	15.310460	15.288187	61.975466
5234.000000	11.764710	14.068753	58.529257
5235.000000	14.411954	16.506539	91.370231
5236.000000	12.479708	12.484377	77.083592
5237.000000	12.868557	12.662250	45.692763
5238.000000	12.396135	13.628121	40.844961
5239.000000	14.586690	14.151526	50.183614
5240.000000	14.726567	14.368799	62.913157
5241.000000	14.166023	14.330497	68.896810
5242.000000	13.769185	13.453341	82.892638
5243.000000	11.765412	10.759744	55.073779
5244.000000	13.693772	15.250168	52.199448
5245.000000	12.945953	13.130337	82.739954
5246.000000	12.729675	12.359158	66.621922
5247.000000	12.521034	12.979270	72.509869
5248.000000	12.522231	12.426208	88.364740
5249.000000	13.555517	13.205685	50.761099
5250.000000	11.313356	10.741776	54.317999
5251.000000	10.786730	11.987915	39.295722
5252.000000	14.492785	15.271480	79.894367
5253.000000	12.853389	12.154212	108.869603
5254.000000	11.238300	12.465820	87.245230
5255.000000	14.334763	14.476654	44.723621
5256.000000	11.173260	11.693395	77.785663
5257.000000	13.032690	12.728462	61.827843
5258.000000	10.231509	9.504389	65.253762
5259.000000	12.724161	12.094641	41.076593
5260.000000	12.289192	11.980228	55.437410
5261.000000	11.657459	10.734458	101.654815
5262.000000	12.736067	11.440676	68.025034
5263.000000	12.648428	11.760667	40.613718
5264.000000	11.812973	11.719440	55.357045
5265.000000	12.567948	12.158867	48.242362
5266.000000	10.068533	9.647395	103.764530
5267.000000	12.327579	13.081647	86.227032
5268.000000	10.781668	10.560669	128.099828
5269.000000	10.811881	9.909426	58.692140
5270.000000	12.468567	11.603799	52.665447
5271.000000	13.193252	14.221891	77.794221
5272.000000	11.445645	10.445700	124.804529
5273.000000	11.320621	11.260396	61.217901
5274.000000	11.100622	11.766193	71.578308
5275.000000	11.306963	10.942713	107.278337
5276.000000	9.464820	9.780919	105.133413
5277.000000	11.318678	10.182493	90.105014
5278.000000	10.146484	9.805849	56.581787
5279.000000	10.954480	11.205001	84.733698
5280.000000	9.503141	8.175813	73.364034
5281.000000	11.012707	10.317436	87.283392
5282.000000	11.784483	11.746706	122.685085
5283.000000	11.109986	10.483122	155.844798
5284.000000	11.088063	10.586373	176.990023
5285.000000	10.029560	9.754294	68.922369
5286.000000	10.929873	10.996831	179.646937
5287.000000	10.855453	10.867010	79.594897
5288.000000	10.572483	11.977183	61.539403
5289.000000	10.870613	11.047910	147.493651
5290.000000	10.374988	10.347748	73.665131
5291.000000	9.209451	9.408626	74.559122
5292.000000	10.363163	10.756032	159.862498
5293.000000	10.275950	9.318558	188.700419
5294.000000	9.873398	10.080889	106.623142
5295.000000	9.128218	9.793138	218.190529
5296.000000	9.613987	9.614670	148.400990
5297.000000	9.541159	10.405133	218.010040
5298.000000	10.348897	9.796065	207.369132
5299.000000	9.235928	9.062326	61.299079
5300.000000	9.706617	8.573790	74.961951
5301.000000	8.650246	8.350871	64.346612
5302.000000	9.188452	9.815327	66.031194
5303.000000	8.365383	7.980270	121.354834
5304.000000	9.011674	8.647672	52.460112
5305.000000	8.495015	8.075915	66.387499
5306.000000	11.241067	11.315836	55.779765
5307.000000	9.985749	10.553323	117.644243
5308.000000	8.632142	8.470411	71.889767
5309.000000	10.246299	9.694390	69.756789
5310.000000	8.152065	8.506312	84.039297
5311.000000	8.792391	8.314429	77.250087
5312.000000	8.169024	8.773635	132.142527
5313.000000	8.714346	9.686756	110.617754
5314.000000	8.505116	9.028139	223.505742
5315.000000	8.334741	7.824075	116.207685
5316.000000	7.724340	8.632106	121.212934
5317.000000	7.915002	8.576299	317.070439
5318.000000	8.536601	8.170223	126.900015
5319.000000	7.860157	7.581287	116.071527
5320.000000	8.152274	7.723715	94.450630
5321.000000	9.141332	8.686488	87.621068
5322.000000	8.247408	8.228643	128.009162
5323.000000	7.703398	6.835482	172.247292
5324.000000	7.858340	8.467251	64.056975
5325.000000	7.775026	8.172350	164.488794
5326.000000	8.483610	9.490610	49.900251
5327.000000	8.371133	7.923338	59.493442
5328.000000	6.587108	6.269641	200.731298
5329.000000	8.098879	8.347136	89.672221
5330.000000	6.826882	6.758663	52.997398
5331.000000	7.552858	7.608545	124.573723
5332.000000	7.857788	7.971573	51.317962
5333.000000	6.414182	6.134837	154.823285
5334.000000	7.590621	7.854596	116.871333
5335.000000	7.580523	7.273818	72.165598
5336.000000	7.139272	7.362776	129.579286
5337.000000	6.997386	6.314112	288.783212
5338.000000	7.532914	8.454505	143.042881
5339.000000	6.849122	6.697752	304.720188
5340.000000	7.633178	8.476452	165.770133
5341.000000	10.488122	9.481934	145.353656
5342.000000	8.244749	6.910177	381.575119
5343.000000	9.212481	9.017206	220.621591
5344.000000	8.897136	8.392313	192.138103
5345.000000	8.254609	8.196450	280.865325
5346.000000	7.741868	7.291358	121.999026
5347.000000	9.380818	8.580936	342.922777
5348.000000	8.504227	7.623368	475.999340
5349.000000	8.551371	8.270853	163.754925
5350.000000	7.463193	7.269492	419.834372
5351.000000	7.965177	8.398048	353.309185
5352.000000	6.887016	6.755262	194.049493
5353.000000	6.264187	6.866180	290.100880
5354.000000	7.333590	7.430931	203.138948
5355.000000	6.140384	6.619416	253.382206
5356.000000	6.774503	6.168704	250.535366
5357.000000	8.439117	7.860620	136.874138
5358.000000	6.653822	6.397878	175.178613
5359.000000	6.406583	6.622276	166.843953
5360.000000	6.627146	7.662082	96.089724
5361.000000	5.596558	5.265502	131.138203
5362.000000	6.482465	6.090659	167.437591
5363.000000	6.830622	7.303173	98.965536
5364.000000	7.428963	7.403837	112.508412
5365.000000	6.857269	6.696264	107.358713
5366.000000	6.926421	7.234903	96.915041
5367.000000	6.207412	6.214287	158.146956
5368.000000	7.390650	6.807102	192.847111
5369.000000	6.930743	6.682176	179.184162
5370.000000	5.762372	5.343702	154.866566
5371.000000	7.012633	6.683066	73.180091
5372.000000	6.728898	6.984020	204.078197
5373.000000	8.670376	7.998796	166.307264
5374.000000	5.893994	5.600333	83.831113
5375.000000	7.216773	6.836080	112.872360
5376.000000	6.857083	7.261577	203.746915
5377.000000	6.596591	7.185622	94.840020
5378.000000	5.534433	5.324538	97.713621
5379.000000	6.209485	6.311308	49.928120
5380.000000	5.493186	5.439135	140.984807
5381.000000	6.365876	5.871525	177.883476
5382.000000	5.637072	5.287076	91.607836
5383.000000	5.318263	5.317948	64.554403
5384.000000	5.942685	5.472196	116.199566
5385.000000	6.111551	5.489728	61.466139
5386.000000	5.765413	5.802163	91.948335
5387.000000	5.722114	5.687527	116.197758
5388.000000	5.746976	6.086569	31.366716
5389.000000	4.924330	4.473198	62.990377
5390.000000	5.411933	5.235313	60.554875
5391.000000	5.202655	5.187518	46.232774
5392.000000	5.508981	5.704102	84.225908
5393.000000	5.698091	6.019284	74.442649
5394.000000	5.726593	5.950068	21.787305
5395.000000	5.421068	5.284906	58.627736
5396.000000	7.584496	7.669527	35.914311
5397.000000	8.062833	6.803324	38.421199
5398.000000	4.980544	4.406980	42.368121
5399.000000	7.142675	6.156186	24.681983
5400.000000	6.410405	6.592561	84.646414
5401.000000	4.767708	4.341907	79.003661
5402.000000	4.561810	4.810765	31.703693
5403.000000	5.069932	4.965468	114.531597
5404.000000	6.321709	6.188555	77.075049
5405.000000	6.642094	6.234767	42.497039
5406.000000	7.139739	7.123547	131.414226
5407.000000	4.684304	4.337389	111.069968
5408.000000	6.223673	6.102738	48.794413
5409.000000	4.992368	4.745632	84.191459
5410.000000	4.152107	4.117545	88.400309
5411.000000	4.277110	4.115846	101.817288
5412.000000	4.743336	4.368877	82.137100
5413.000000	4.726435	4.860375	80.461629
5414.000000	5.113717	4.786088	131.103892
5415.000000	4.492064	4.691610	63.863015
5416.000000	4.306962	4.422007	81.708779
5417.000000	4.457774	4.332005	90.310934
5418.000000	4.368196	3.846239	104.136590
5419.000000	5.287874	5.914074	45.635225
5420.000000	5.915722	5.665085	73.024956
5421.000000	4.847308	4.681897	30.726396
5422.000000	4.771682	4.652608	27.482652
5423.000000	5.303701	5.741871	50.678460
5424.000000	4.758316	4.414618	32.401746
5425.000000	4.455609	4.450895	55.951748
5426.000000	4.200563	4.485398	42.787202
5427.000000	4.036219	4.155291	34.779440
5428.000000	4.789549	4.715995	47.943966
5429.000000	4.943349	4.971765	29.082393
5430.000000	5.272710	4.843591	56.658799
5431.000000	4.827452	3.941364	75.736915
5432.000000	4.558742	4.212525	81.882614
5433.000000	4.536008	3.864448	26.188413
5434.000000	3.886152	3.513618	30.245760
5435.000000	3.468794	3.531520	17.362742
5436.000000	4.071792	3.969630	32.404525
5437.000000	3.282460	3.337490	34.510697
5438.000000	3.315347	3.801534	19.133117
5439.000000	3.240365	2.870292	23.301970
5440.000000	3.544153	3.657487	21.515155
5441.000000	3.247507	3.783540	22.005718
5442.000000	3.641637	3.414003	27.454016
5443.000000	4.013414	3.364127	20.524830
5444.000000	3.078804	2.933397	13.639503
5445.000000	3.174109	2.940755	14.527025
5446.000000	3.088571	2.954375	19.834464
5447.000000	2.980947	3.018540	14.640283
5448.000000	2.056665	2.167666	8.914677
5449.000000	4.273397	3.796426	18.393329
5450.000000	3.268138	3.286396	14.297236
5451.000000	2.889979	2.571073	27.491262
5452.000000	2.313174	2.092470	10.615976
5453.000000	3.001012	3.313699	15.331403
5454.000000	2.103939	1.964766	31.779988
5455.000000	2.826991	3.296638	21.191464
5456.000000	2.993915	3.192602	57.703065
5457.000000	2.634702	2.596303	9.745046
5458.000000	2.752144	2.706524	31.980522
5459.000000	2.985548	3.116257	22.945291
5460.000000	1.880234	1.746958	23.451321
5461.000000	3.008558	3.094004	50.947294
5462.000000	2.244970	2.018634	17.472937
5463.000000	2.542939	2.649061	12.530548
5464.000000	2.078623	1.859710	18.804106
5465.000000	1.943835	1.853852	28.578545
5466.000000	2.662921	2.658839	16.876054
5467.000000	3.129211	2.933824	24.083201
5468.000000	2.354576	2.320554	15.834191
5469.000000	2.245978	1.924112	18.402465
5470.000000	1.584883	1.607031	35.297872
5471.000000	1.780293	1.698797	6.395255
5472.000000	1.918334	2.052142	8.121412
5473.000000	1.865332	2.047809	19.600411
5474.000000	1.532068	1.507199	6.006525
5475.000000	1.588154	1.380212	16.519560
5476.000000	1.591801	1.454248	7.311110
5477.000000	1.305750	1.225367	5.496906
5478.000000	1.354022	1.249647	7.924922
5479.000000	1.175807	1.169314	5.100287
5480.000000	1.509031	1.503651	4.978322
5481.000000	1.787399	1.524246	5.656054
5482.000000	1.735399	1.599244	10.320243
5483.000000	1.073493	0.988062	7.720819
5484.000000	1.212525	1.056530	7.849740
5485.000000	1.943977	1.619027	10.562695
5486.000000	1.447115	1.333907	10.069384
5487.000000	1.129532	1.253272	4.525886
5488.000000	1.023490	0.910080	4.166351
5489.000000	0.912754	0.807809	4.403689
5490.000000	2.348290	1.776564	9.339195
5491.000000	0.908793	0.853921	4.355740
5492.000000	1.585694	1.519934	6.302826
5493.000000	1.075816	1.112381	6.143829
5494.000000	2.647981	1.917791	12.751872
5495.000000	0.867299	0.773773	5.754333
5496.000000	0.951902	0.872807	8.217097
5497.000000	2.509915	1.876320	9.167107
5498.000000	0.752596	0.775444	19.907206
5499.000000	1.205341	1.206351	7.324125
5500.000000	0.922069	0.882371	10.146782
