# uW amps removed from audio path!

# Scan parameters: power 16.000000 dBm, bandwidth 1.500000 Hz
# Frequency [MHz]	avg noise	std noise	peak value
3900.000000	17.695529	15.036633	1083.285107
3901.000000	10.368390	11.453758	1883.779641
3902.000000	9.641723	9.390246	956.131873
3903.000000	11.001669	10.200565	1803.034464
3904.000000	9.573416	9.562667	1649.336620
3905.000000	9.250055	9.007299	1315.419030
3906.000000	9.998219	9.417908	2100.898775
3907.000000	10.164328	9.332939	1358.230633
3908.000000	9.898253	8.774091	1570.426800
3909.000000	12.043874	11.438721	2316.398590
3910.000000	9.735219	9.383689	1343.103648
3911.000000	10.333483	10.638177	2181.180680
3912.000000	10.154702	10.559239	1940.713913
3913.000000	9.924829	10.134022	863.599354
3914.000000	10.629355	10.424381	2448.317474
3915.000000	10.041987	9.634504	2046.961279
3916.000000	11.857389	12.366951	1425.062442
3917.000000	9.306969	9.002195	2741.724124
3918.000000	9.158377	9.809892	1669.801761
3919.000000	9.278009	9.677522	1801.601821
3920.000000	10.106597	9.135811	2930.544350
3921.000000	9.926760	8.789991	1616.071248
3922.000000	9.906254	11.093156	2200.042717
3923.000000	9.626450	10.262661	2555.108542
3924.000000	10.008215	9.336631	1053.750215
3925.000000	9.650313	9.577657	2177.262251
3926.000000	9.625105	9.493732	1968.326372
3927.000000	9.541408	10.813660	902.028141
3928.000000	9.005658	8.531719	1843.163627
3929.000000	9.402915	10.409653	1445.723859
3930.000000	9.695869	9.347531	1391.364745
3931.000000	9.282517	8.969856	1439.565372
3932.000000	10.251953	8.449057	1260.094898
3933.000000	10.092292	10.532037	1687.421914
3934.000000	9.273825	9.206728	1647.984931
3935.000000	9.541046	10.360832	904.228568
3936.000000	9.475775	8.983176	1305.007367
3937.000000	9.748809	11.107405	1075.352285
3938.000000	12.274647	14.422140	772.522300
3939.000000	10.337786	10.463739	1356.399367
3940.000000	8.780286	9.016612	1388.329808
3941.000000	8.291741	8.008419	1066.658544
3942.000000	10.326897	10.465355	1830.766231
3943.000000	9.101051	9.302045	1249.007042
3944.000000	9.316992	8.971339	1158.695915
3945.000000	9.129524	8.981533	1887.719098
3946.000000	9.303539	9.337806	1083.037507
3947.000000	8.821815	8.614398	1449.318631
3948.000000	9.458265	9.214203	2245.013125
3949.000000	9.148425	9.329545	1019.015229
3950.000000	8.815418	8.983395	2209.939417
3951.000000	10.157167	9.791308	2433.709929
3952.000000	9.724299	10.629981	1313.040793
3953.000000	8.837322	9.768286	2789.618397
3954.000000	9.647397	8.958831	1873.748800
3955.000000	9.558284	10.072116	1581.220984
3956.000000	9.131784	9.121397	2596.026543
3957.000000	8.499102	8.291974	1833.223880
3958.000000	9.918063	8.877423	2153.653557
3959.000000	9.292603	9.286004	2385.129720
3960.000000	8.369759	7.607930	1157.061615
3961.000000	9.544181	9.300285	1884.484128
3962.000000	9.210045	9.571011	1935.597233
3963.000000	8.574078	8.947244	958.031637
3964.000000	8.990123	9.658415	2017.172621
3965.000000	8.907151	9.276703	1564.157318
3966.000000	9.578877	9.418741	1118.150288
3967.000000	9.799853	9.972652	2178.463797
3968.000000	8.354917	8.746530	1488.592248
3969.000000	8.908860	8.587092	1616.780304
3970.000000	8.967268	8.581366	2061.187774
3971.000000	8.012115	7.552567	1143.670930
3972.000000	9.452349	8.935860	1486.286399
3973.000000	8.337378	8.431590	2269.579248
3974.000000	8.479931	8.262716	860.243413
3975.000000	8.381015	8.374892	1530.149526
3976.000000	8.241017	8.167131	1679.086513
3977.000000	8.611882	8.328383	876.349756
3978.000000	8.428969	8.925845	1769.256099
3979.000000	8.145384	8.365073	1489.864049
3980.000000	8.793901	8.013964	1161.808338
3981.000000	9.489970	11.146345	2054.243467
3982.000000	8.260583	9.011047	1119.345813
3983.000000	9.415981	8.335459	1221.462745
3984.000000	8.317953	7.710491	1534.435794
3985.000000	9.316128	8.165051	642.837201
3986.000000	9.302938	8.659404	1129.583718
3987.000000	8.515732	7.626057	1142.579871
3988.000000	9.171864	9.159389	701.983664
3989.000000	9.248157	8.949744	1656.263747
3990.000000	7.840721	9.146408	1263.816319
3991.000000	8.392479	8.356893	1178.390555
3992.000000	9.325702	8.905231	1522.790755
3993.000000	8.983958	7.973976	1490.951734
3994.000000	8.272143	7.756645	1280.589880
3995.000000	8.883863	9.226989	1677.140284
3996.000000	9.019287	9.268107	990.738547
3997.000000	9.163278	8.635356	1306.834490
3998.000000	9.000073	8.693891	1697.829521
3999.000000	9.278217	8.632838	675.316008
4000.000000	9.157930	9.404189	1829.086291
4001.000000	8.024307	8.725655	1638.189756
4002.000000	8.363382	7.599150	888.113152
4003.000000	8.991984	7.879168	1747.379980
4004.000000	9.174909	8.829052	1585.429721
4005.000000	8.981197	9.945077	1412.830354
4006.000000	8.264077	8.428083	2404.284311
4007.000000	7.760812	7.958250	1539.805562
4008.000000	8.394357	7.727942	1744.125892
4009.000000	8.229382	9.087078	2182.292207
4010.000000	8.615872	9.145630	1184.315868
4011.000000	8.691298	7.555589	1725.212236
4012.000000	8.824026	9.224141	1648.224168
4013.000000	7.936216	7.194452	1008.533664
4014.000000	9.883635	9.835828	1706.865927
4015.000000	8.256219	9.100153	1218.194151
4016.000000	7.904388	8.629746	987.189295
4017.000000	9.244443	8.581392	1442.994955
4018.000000	9.082878	8.586635	905.741465
4019.000000	7.697894	7.843585	873.370603
4020.000000	8.943592	8.750170	1081.476960
4021.000000	9.732455	8.943975	841.946506
4022.000000	8.596647	8.440507	666.619696
4023.000000	8.416285	7.961742	1255.842464
4024.000000	9.152400	8.691672	430.814805
4025.000000	8.371491	8.617502	1355.797478
4026.000000	7.179573	7.388072	1131.841076
4027.000000	7.979051	8.473225	804.025044
4028.000000	8.558547	9.461961	1037.673785
4029.000000	7.895139	7.708574	1074.052466
4030.000000	8.486924	9.413406	1052.959292
4031.000000	8.354610	7.896207	1440.440164
4032.000000	8.786113	9.180184	867.240965
4033.000000	9.247933	8.860478	1173.976030
4034.000000	9.103818	9.270577	1411.133780
4035.000000	8.359592	7.784686	762.333189
4036.000000	8.512701	8.463279	1003.737397
4037.000000	9.047086	9.049229	1057.038549
4038.000000	8.460307	7.674178	540.087541
4039.000000	8.310840	7.591399	980.631845
4040.000000	9.034257	8.709953	964.314303
4041.000000	8.632827	8.972977	729.454429
4042.000000	8.381115	10.725135	974.996577
4043.000000	9.204285	8.789763	843.423250
4044.000000	8.194897	8.205961	754.195098
4045.000000	8.329952	8.096341	1253.174145
4046.000000	8.160944	8.268487	728.598908
4047.000000	7.639170	7.254306	884.217653
4048.000000	8.776476	8.261184	1139.258021
4049.000000	8.876503	9.243250	527.528827
4050.000000	8.334458	8.630537	979.289367
4051.000000	9.084233	10.217847	1292.125816
4052.000000	10.056151	9.526604	692.333545
4053.000000	8.703102	8.336834	1246.486545
4054.000000	9.304911	9.059821	1078.851817
4055.000000	8.753891	9.293799	1105.439240
4056.000000	9.713347	10.858509	1403.396430
4057.000000	9.655753	8.641196	737.135821
4058.000000	8.698800	8.494811	882.312760
4059.000000	10.554538	11.197602	954.040887
4060.000000	9.424211	8.959471	568.104798
4061.000000	8.612851	8.411620	953.960561
4062.000000	9.460189	9.805295	1042.954301
4063.000000	8.565447	8.082881	550.229053
4064.000000	10.399484	10.541970	890.596030
4065.000000	9.986912	10.011137	782.053939
4066.000000	8.893286	9.196313	485.099990
4067.000000	9.218965	8.891086	1001.694929
4068.000000	10.112907	9.607688	609.573390
4069.000000	9.494537	10.110919	491.591476
4070.000000	9.475629	9.385421	715.494787
4071.000000	10.177091	9.618690	275.042950
4072.000000	9.965354	9.349087	782.287290
4073.000000	8.792116	8.421914	614.219699
4074.000000	10.129897	10.740610	397.357328
4075.000000	10.777889	9.713631	499.310875
4076.000000	9.514018	9.849766	665.557422
4077.000000	9.059842	9.182896	441.435170
4078.000000	9.826633	9.460152	757.669950
4079.000000	10.368595	11.240606	415.612210
4080.000000	8.066045	8.665484	294.570250
4081.000000	8.823499	8.200031	525.217233
4082.000000	9.389352	9.092641	282.022334
4083.000000	9.813960	9.754713	401.552885
4084.000000	9.851117	10.427720	301.534382
4085.000000	9.991553	11.493770	136.460695
4086.000000	9.470261	9.089512	305.721748
4087.000000	10.583552	9.986820	358.874707
4088.000000	11.266106	10.222424	218.365101
4089.000000	10.841438	10.827893	431.731114
4090.000000	10.211701	10.202079	255.620352
4091.000000	11.062309	10.619676	224.703774
4092.000000	10.282461	10.738891	367.044343
4093.000000	9.820034	9.731212	362.545256
4094.000000	10.731618	9.326782	428.990391
4095.000000	10.729136	10.390490	824.632721
4096.000000	11.281034	11.239466	426.003704
4097.000000	10.925815	10.777366	594.084728
4098.000000	11.129771	11.217698	909.024052
4099.000000	10.215235	9.751057	519.684067
4100.000000	11.617060	11.042990	941.265171
4101.000000	10.159640	10.189614	937.971354
4102.000000	10.523803	9.642136	464.774550
4103.000000	10.080327	10.362692	957.166822
4104.000000	10.625855	9.579840	636.286874
4105.000000	11.859779	12.126159	749.195409
4106.000000	11.202933	12.169294	651.908675
4107.000000	11.430663	11.420412	531.569154
4108.000000	10.986541	10.729791	446.835971
4109.000000	11.266761	10.247525	594.059174
4110.000000	10.529210	10.544349	221.924319
4111.000000	12.564318	12.262929	476.175085
4112.000000	10.853908	10.603962	308.410853
4113.000000	9.549265	9.329849	224.308591
4114.000000	10.610609	10.246206	508.334478
4115.000000	11.842138	13.128962	422.264350
4116.000000	12.080274	11.718124	254.139366
4117.000000	10.645858	10.125802	372.808949
4118.000000	11.017151	9.464505	267.573969
4119.000000	11.819087	11.226162	322.007296
4120.000000	11.824854	11.591362	241.436836
4121.000000	12.255395	10.774187	105.980132
4122.000000	10.735256	10.321107	127.777928
4123.000000	12.223810	12.322223	125.133814
4124.000000	11.677356	10.988310	127.987575
4125.000000	12.364788	12.052343	133.480476
4126.000000	11.413398	10.721818	52.287110
4127.000000	11.400551	11.976180	40.094793
4128.000000	10.034882	10.318950	120.154179
4129.000000	12.018630	11.800423	39.410142
4130.000000	10.375572	9.794615	55.818366
4131.000000	10.339021	11.082549	62.590853
4132.000000	10.381920	10.386869	56.721884
4133.000000	11.055392	11.904726	65.383304
4134.000000	11.919729	11.766585	41.159841
4135.000000	10.463958	10.353769	65.211082
4136.000000	9.605228	9.910847	67.884097
4137.000000	10.441762	9.873530	64.078055
4138.000000	9.734130	9.586924	61.086129
4139.000000	9.894525	11.739835	53.196123
4140.000000	10.979928	10.333018	65.198603
4141.000000	12.636333	12.277248	78.733203
4142.000000	10.924068	11.655329	95.239412
4143.000000	10.927466	10.437768	104.316736
4144.000000	9.950030	9.740406	94.112996
4145.000000	11.788233	11.121295	57.568605
4146.000000	9.959337	11.778089	30.359715
4147.000000	9.921871	9.457616	49.456707
4148.000000	11.092693	10.627133	41.198657
4149.000000	10.513825	9.787557	37.917907
4150.000000	11.259334	10.055667	100.591633
4151.000000	9.803786	9.551199	47.867079
4152.000000	10.141262	9.077022	60.336718
4153.000000	9.260831	8.102167	38.757403
4154.000000	9.745011	9.121946	41.632759
4155.000000	9.674140	9.611896	82.168046
4156.000000	9.030082	8.886733	44.148040
4157.000000	10.846146	10.782769	53.283811
4158.000000	9.924328	11.443016	85.181092
4159.000000	10.544190	10.691681	66.528972
4160.000000	10.045621	10.242093	73.669637
4161.000000	10.337480	10.434792	40.999716
4162.000000	10.957307	11.014757	64.011762
4163.000000	10.142348	9.584274	57.236078
4164.000000	9.585665	9.005460	69.666822
4165.000000	11.103621	10.701985	36.273313
4166.000000	9.929409	9.749503	55.925336
4167.000000	10.112132	8.143980	32.829653
4168.000000	10.520055	10.290169	75.697233
4169.000000	9.469418	8.014302	72.047847
4170.000000	9.229839	10.434044	81.803337
4171.000000	9.535705	9.840288	64.894797
4172.000000	9.860923	8.866135	42.992865
4173.000000	10.889583	11.038712	88.732793
4174.000000	9.976526	9.509521	45.957404
4175.000000	9.898108	10.179365	57.392499
4176.000000	10.698924	9.522880	52.419754
4177.000000	9.597288	9.235064	52.258196
4178.000000	9.684199	9.608389	117.933592
4179.000000	9.847760	9.120679	106.581466
4180.000000	11.036885	9.993886	47.597593
4181.000000	10.177142	9.194587	115.422125
4182.000000	10.247546	9.053628	74.700287
4183.000000	9.220004	9.079474	50.970546
4184.000000	9.875611	9.716996	92.332193
4185.000000	9.208216	8.040767	61.570673
4186.000000	9.473782	8.108218	32.814510
4187.000000	9.500890	10.475557	161.879700
4188.000000	10.762358	10.544945	46.324792
4189.000000	8.006503	7.143294	84.138011
4190.000000	8.277293	7.969342	75.732916
4191.000000	8.519581	8.801139	63.927677
4192.000000	9.213182	10.291718	56.302943
4193.000000	8.107336	7.937019	40.896043
4194.000000	8.863307	9.337093	38.804811
4195.000000	8.946614	9.030512	77.203881
4196.000000	9.645037	10.162700	34.539444
4197.000000	8.005000	8.493487	56.283028
4198.000000	7.925126	7.666606	89.124983
4199.000000	9.099033	8.333195	47.196669
4200.000000	8.621642	8.907811	84.362801
4201.000000	8.313826	8.896711	62.444650
4202.000000	8.889333	9.025231	99.192524
4203.000000	8.138203	7.405126	71.264491
4204.000000	9.271554	9.705983	58.639534
4205.000000	8.766675	8.814415	38.959317
4206.000000	8.076417	7.294744	76.517758
4207.000000	8.870822	9.716184	40.589394
4208.000000	8.821834	7.960174	52.815115
4209.000000	7.318247	7.654297	80.099535
4210.000000	8.531121	8.405193	41.957151
4211.000000	7.606854	7.269462	80.018034
4212.000000	8.215017	8.528831	39.403179
4213.000000	7.598640	8.212221	34.804917
4214.000000	7.853007	7.190154	38.801170
4215.000000	7.295408	6.703452	36.414984
4216.000000	7.742811	7.503450	28.031227
4217.000000	7.801654	7.453041	37.586864
4218.000000	6.675302	6.433356	39.855535
4219.000000	7.378985	7.648873	53.919771
4220.000000	7.672180	7.630933	22.233203
4221.000000	7.056678	7.310013	31.552892
4222.000000	7.487333	7.011227	25.158643
4223.000000	6.832576	7.423133	44.744280
4224.000000	7.257464	7.220195	34.658911
4225.000000	7.641740	6.941104	55.962863
4226.000000	7.040239	7.381442	40.003510
4227.000000	6.263872	6.309699	37.816567
4228.000000	7.279321	7.616768	40.951583
4229.000000	7.179867	7.151098	20.175570
4230.000000	6.806270	6.553710	73.569058
4231.000000	7.563338	7.399837	37.503574
4232.000000	6.527139	6.135647	36.606894
4233.000000	6.995651	6.377953	30.072986
4234.000000	6.897845	6.515203	40.770600
4235.000000	8.311059	7.914080	19.103530
4236.000000	7.164800	7.157400	40.710871
4237.000000	7.141192	7.474938	33.195295
4238.000000	7.959426	7.988333	33.237036
4239.000000	7.480718	7.270301	27.461103
4240.000000	8.044414	9.104570	34.802839
4241.000000	7.612286	7.584493	22.356572
4242.000000	6.798375	6.095200	30.460568
4243.000000	7.265493	7.112896	43.067088
4244.000000	6.748005	6.765411	33.141755
4245.000000	7.068987	7.127069	26.749392
4246.000000	6.848566	6.618522	37.985851
4247.000000	6.781594	6.886113	37.546405
4248.000000	7.401511	7.044349	17.891553
4249.000000	6.709654	7.518168	43.674519
4250.000000	6.984061	6.707748	40.877347
4251.000000	7.800130	8.094651	27.848350
4252.000000	7.735685	7.727517	28.725904
4253.000000	7.927338	8.156241	31.356388
4254.000000	8.146638	6.800429	46.704859
4255.000000	7.814509	7.798270	39.295084
4256.000000	7.311417	7.542647	31.358625
4257.000000	6.936419	6.172111	45.251413
4258.000000	8.061119	8.829431	24.657445
4259.000000	8.515416	9.407715	30.715235
4260.000000	6.743969	6.070076	48.474707
4261.000000	6.941584	5.954484	17.716366
4262.000000	8.789262	9.488777	38.532351
4263.000000	8.438022	8.686393	53.158701
4264.000000	7.678506	7.516539	26.701511
4265.000000	8.543023	8.807150	36.608799
4266.000000	7.772350	7.451035	56.612224
4267.000000	7.050958	7.038932	56.023346
4268.000000	7.426793	7.269286	54.547547
4269.000000	7.603350	7.023152	50.957581
4270.000000	7.525664	7.727469	50.943998
4271.000000	7.348670	7.169655	42.213664
4272.000000	7.687171	6.906031	76.750494
4273.000000	7.666805	6.762092	41.156998
4274.000000	7.565569	8.492082	30.482607
4275.000000	7.989951	7.883097	51.605594
4276.000000	8.619034	8.663391	27.965620
4277.000000	6.357786	6.323430	27.932954
4278.000000	7.216408	7.250029	65.776641
4279.000000	7.544210	7.685690	33.944565
4280.000000	7.017255	8.429072	45.216320
4281.000000	7.329931	7.208905	85.915947
4282.000000	7.925690	7.697810	50.612704
4283.000000	7.580087	6.982037	44.371766
4284.000000	7.543970	7.651507	72.275546
4285.000000	7.388251	7.508380	64.466908
4286.000000	7.529114	8.022513	60.361149
4287.000000	8.277072	8.104830	63.760533
4288.000000	7.781135	7.521198	55.863430
4289.000000	8.835942	8.964085	54.568143
4290.000000	8.432713	7.693058	49.341782
4291.000000	8.433665	9.254787	74.145825
4292.000000	8.035581	8.118018	53.412459
4293.000000	7.289639	7.876235	66.128754
4294.000000	7.286773	7.315724	49.776322
4295.000000	8.661992	8.338327	127.695813
4296.000000	6.978279	7.126374	114.311385
4297.000000	7.271766	7.620885	146.780017
4298.000000	6.874385	6.956039	90.949189
4299.000000	8.323668	8.697155	68.287598
4300.000000	7.984619	8.554917	185.495944
4301.000000	7.853600	7.261270	263.506738
4302.000000	8.311656	9.032921	93.481193
4303.000000	7.813586	8.394560	249.495816
4304.000000	7.559389	7.564381	181.500884
4305.000000	7.920728	8.020879	103.611150
4306.000000	7.945226	8.200396	170.759267
4307.000000	8.857034	9.023688	228.909171
4308.000000	7.918834	7.539700	191.776745
4309.000000	8.199565	8.414768	145.655989
4310.000000	8.697952	7.939653	88.449803
4311.000000	8.294695	7.906337	118.237182
4312.000000	9.773934	10.460513	152.778338
4313.000000	8.251889	8.927095	142.062437
4314.000000	9.223956	8.329039	284.132362
4315.000000	8.381213	8.354082	95.234873
4316.000000	9.737759	9.466823	63.979176
4317.000000	8.261234	7.970480	131.444508
4318.000000	7.834327	7.505660	99.081053
4319.000000	10.139697	10.404662	151.672362
4320.000000	10.134080	10.242291	134.083671
4321.000000	8.401135	8.188222	141.409713
4322.000000	9.287511	9.659197	115.525875
4323.000000	10.923760	11.116709	135.273736
4324.000000	10.073686	9.818056	36.282204
4325.000000	9.160139	8.546911	66.456413
4326.000000	9.859503	10.466126	110.449793
4327.000000	9.475985	9.341201	110.764362
4328.000000	9.082234	9.472615	90.645492
4329.000000	10.354140	10.154163	55.656217
4330.000000	9.776207	9.653587	59.827692
4331.000000	8.753240	7.844395	68.119733
4332.000000	8.598126	9.165007	53.925447
4333.000000	10.548365	11.163517	93.470747
4334.000000	10.008194	10.617029	74.412392
4335.000000	8.623926	9.028880	40.554442
4336.000000	10.511279	10.025394	58.953707
4337.000000	9.889958	9.320325	42.793177
4338.000000	10.157443	9.501425	41.793717
4339.000000	11.319145	12.609058	37.551767
4340.000000	10.357074	11.242580	44.800625
4341.000000	10.465119	9.813533	66.406634
4342.000000	10.311617	9.574621	87.791986
4343.000000	9.271828	9.507786	41.693905
4344.000000	12.009126	11.039907	35.143363
4345.000000	10.448643	10.220725	51.597716
4346.000000	9.759607	9.780623	46.747579
4347.000000	10.196837	9.951775	46.217178
4348.000000	10.522896	9.855988	58.589668
4349.000000	11.355475	11.288697	35.117118
4350.000000	11.849460	10.996591	46.467754
4351.000000	9.788216	9.540916	71.995576
4352.000000	10.690019	11.060064	58.508320
4353.000000	10.377700	11.362208	46.813337
4354.000000	10.685830	10.689568	55.609844
4355.000000	11.115238	10.416455	42.053894
4356.000000	11.027535	10.121649	94.548175
4357.000000	11.328763	11.726153	61.062917
4358.000000	10.561565	10.774785	108.233340
4359.000000	9.920599	9.876005	52.551086
4360.000000	10.420071	10.878945	49.607269
4361.000000	11.671918	11.814517	135.408483
4362.000000	10.086136	9.757796	84.721244
4363.000000	11.729634	10.266978	47.665753
4364.000000	10.870682	10.426367	42.946289
4365.000000	10.672789	10.420689	54.505827
4366.000000	11.847143	11.373569	45.303583
4367.000000	11.318676	11.436605	85.642773
4368.000000	10.249932	9.951962	73.206769
4369.000000	10.576580	10.935571	48.497720
4370.000000	10.725181	11.005903	55.035467
4371.000000	9.954728	11.024663	46.193074
4372.000000	10.022978	10.191990	64.370262
4373.000000	9.854820	9.927861	58.295611
4374.000000	12.577248	12.901807	112.114932
4375.000000	11.229044	10.110751	91.775148
4376.000000	11.744555	11.870443	41.027479
4377.000000	10.741024	11.347829	62.152617
4378.000000	9.983939	9.630430	60.712628
4379.000000	11.641484	11.164250	41.345021
4380.000000	12.190675	13.007604	47.395752
4381.000000	10.746061	10.562329	46.804737
4382.000000	10.902735	10.947680	51.561270
4383.000000	11.236916	10.981902	43.092447
4384.000000	9.958767	10.186768	63.843063
4385.000000	9.816853	9.187036	56.885327
4386.000000	10.049304	9.707128	45.927577
4387.000000	10.911215	11.437083	56.006445
4388.000000	9.990308	8.840079	77.397812
4389.000000	11.101302	9.039161	40.859533
4390.000000	11.141600	10.530258	56.688383
4391.000000	11.292526	11.044800	48.289066
4392.000000	11.104888	9.970882	61.192436
4393.000000	12.237095	12.933735	49.564282
4394.000000	11.167397	10.666264	71.811074
4395.000000	11.161616	10.635233	44.655198
4396.000000	11.107747	11.254803	78.594217
4397.000000	9.791988	10.260607	49.541615
4398.000000	9.851758	9.332088	43.115264
4399.000000	9.528257	10.706289	56.036983
4400.000000	10.900177	10.643652	36.512810
4401.000000	10.801791	11.344494	61.432888
4402.000000	11.590171	11.733907	60.029852
4403.000000	10.927919	10.799055	88.339164
4404.000000	11.535667	9.941890	62.529900
4405.000000	10.804122	11.124222	51.891082
4406.000000	10.838189	11.380067	55.099368
4407.000000	11.948913	11.844363	58.300258
4408.000000	11.607208	11.791981	75.759553
4409.000000	11.517172	10.852853	53.067601
4410.000000	12.238142	12.194371	75.446777
4411.000000	11.363668	10.378660	58.799534
4412.000000	11.393206	10.781967	35.116428
4413.000000	11.478783	10.535889	120.166443
4414.000000	12.086119	11.416857	61.224609
4415.000000	10.908942	10.749624	64.597721
4416.000000	11.115655	11.983332	116.828463
4417.000000	10.474505	10.057459	52.837300
4418.000000	9.983001	11.007434	43.155021
4419.000000	12.884722	11.379700	54.963266
4420.000000	11.161789	10.366308	71.569388
4421.000000	11.947287	11.634896	58.712450
4422.000000	10.966775	11.469806	44.215132
4423.000000	11.859249	11.655509	48.446168
4424.000000	11.620123	11.545386	47.066128
4425.000000	11.279386	11.951177	60.433437
4426.000000	11.245779	11.349533	51.152556
4427.000000	12.359257	12.207403	43.578757
4428.000000	10.010519	9.351444	46.602361
4429.000000	12.835505	13.991209	47.677939
4430.000000	13.058985	12.547601	40.809952
4431.000000	10.693939	11.610795	63.810680
4432.000000	12.768851	12.617796	72.208919
4433.000000	11.381754	10.321200	63.038853
4434.000000	9.682797	9.956913	56.644707
4435.000000	12.562266	12.779606	46.749393
4436.000000	11.700378	12.436816	42.956600
4437.000000	11.657431	12.641770	125.284375
4438.000000	11.810507	12.301904	60.260770
4439.000000	12.693175	11.538653	45.144138
4440.000000	11.697660	11.686860	60.517946
4441.000000	12.141433	11.753216	66.875243
4442.000000	11.978270	12.335300	110.380560
4443.000000	10.982653	11.275678	100.561961
4444.000000	12.556475	11.880706	110.252682
4445.000000	11.124955	9.974355	74.729666
4446.000000	13.173731	14.378311	69.748038
4447.000000	12.823914	13.289575	43.678519
4448.000000	11.837225	12.307096	75.006073
4449.000000	14.017870	14.073259	61.936420
4450.000000	16.122008	16.973262	63.866541
4451.000000	11.045671	11.735690	60.699906
4452.000000	13.003292	13.034939	68.295607
4453.000000	12.625112	12.034181	72.806620
4454.000000	13.187595	12.380044	107.041341
4455.000000	11.520961	10.182195	77.885138
4456.000000	11.543686	11.961366	209.747988
4457.000000	11.896850	12.273174	75.257297
4458.000000	11.571609	11.738633	96.293625
4459.000000	12.336384	14.118610	134.415982
4460.000000	12.174650	12.508408	74.676686
4461.000000	13.602473	13.202115	147.769809
4462.000000	12.851226	11.530173	73.471634
4463.000000	12.558726	12.850918	107.698466
4464.000000	13.470113	12.738771	94.898243
4465.000000	13.861526	14.393373	98.676471
4466.000000	12.774365	12.904153	60.874043
4467.000000	13.141988	11.965130	158.490101
4468.000000	13.284300	14.175041	139.923867
4469.000000	12.676121	12.837456	119.138600
4470.000000	12.947649	12.493442	129.998353
4471.000000	14.802403	14.243701	142.034398
4472.000000	13.049622	11.944842	181.462062
4473.000000	15.715751	14.310015	188.558417
4474.000000	13.795890	15.473156	88.954473
4475.000000	14.074252	13.995177	225.594571
4476.000000	13.129713	13.146033	238.466085
4477.000000	13.135977	11.239564	128.587362
4478.000000	15.649619	14.950309	249.855677
4479.000000	13.508822	13.541314	154.438451
4480.000000	13.456588	12.751609	210.348601
4481.000000	14.440988	15.085856	155.729310
4482.000000	14.654466	14.101948	211.901438
4483.000000	12.749917	12.535251	292.619633
4484.000000	14.930116	15.778596	336.864791
4485.000000	13.924104	13.260635	146.538623
4486.000000	14.633969	15.175341	215.488049
4487.000000	15.012752	15.255310	258.943842
4488.000000	14.285879	12.642029	105.324841
4489.000000	14.965281	13.887764	88.058994
4490.000000	15.262133	16.244827	157.541231
4491.000000	16.755189	15.800653	198.622341
4492.000000	15.631965	15.334551	310.468544
4493.000000	14.112937	14.171215	255.808119
4494.000000	14.790171	13.445190	79.279830
4495.000000	17.763838	18.524025	250.876390
4496.000000	16.712597	15.835578	116.487401
4497.000000	15.096963	15.199193	383.116660
4498.000000	17.100083	17.079349	347.857210
4499.000000	15.091962	15.958824	151.621603
4500.000000	17.359744	16.816823	660.443982
4501.000000	18.317642	18.598558	255.792324
4502.000000	17.171914	18.741990	236.658414
4503.000000	16.096621	14.859083	321.666006
4504.000000	13.954223	14.912531	272.460085
4505.000000	15.002205	14.945852	272.313681
4506.000000	15.993776	15.821313	491.335448
4507.000000	16.809118	17.477295	233.238331
4508.000000	19.143319	16.872665	352.391850
4509.000000	16.419162	16.453474	428.761005
4510.000000	18.598065	20.043196	219.037700
4511.000000	18.103253	17.297502	441.524547
4512.000000	15.378107	14.598008	400.374278
4513.000000	19.043574	18.846673	528.148440
4514.000000	17.535322	16.457663	433.337052
4515.000000	15.012746	13.262731	184.567163
4516.000000	16.072547	16.961494	249.579756
4517.000000	19.098569	19.094760	485.365031
4518.000000	16.238908	16.619502	311.911884
4519.000000	19.944974	19.665500	420.110314
4520.000000	19.951121	18.745445	427.951679
4521.000000	19.109926	19.240888	236.475196
4522.000000	20.051906	19.514162	308.471868
4523.000000	19.196297	19.144120	483.974808
4524.000000	20.293673	20.181910	217.187757
4525.000000	20.483733	21.490675	458.417553
4526.000000	18.949967	18.719029	409.856839
4527.000000	19.888523	20.353826	255.264363
4528.000000	17.514064	19.443578	392.743072
4529.000000	21.498991	20.715996	237.668950
4530.000000	17.952798	19.133382	213.898778
4531.000000	18.110192	15.575688	326.160311
4532.000000	19.660478	19.329249	200.471034
4533.000000	19.414808	19.447696	260.645373
4534.000000	17.278334	15.922770	178.222351
4535.000000	21.047499	20.388029	132.326093
4536.000000	22.438436	24.134395	342.261790
4537.000000	20.323034	20.355711	189.438136
4538.000000	20.080967	18.165596	133.374261
4539.000000	18.293872	18.225307	282.516245
4540.000000	18.820972	17.450614	232.757784
4541.000000	19.837866	19.637749	148.983145
4542.000000	20.686556	20.593995	333.511434
4543.000000	19.734008	19.020695	338.008609
4544.000000	20.808880	22.017864	311.080055
4545.000000	24.140120	25.227686	209.756717
4546.000000	22.557951	20.867642	118.830970
4547.000000	20.687940	22.770865	131.181214
4548.000000	20.544340	20.351373	332.187587
4549.000000	22.292367	24.034882	326.139477
4550.000000	20.552462	18.826226	350.011812
4551.000000	23.946199	23.324067	204.606195
4552.000000	21.020206	21.374393	92.863594
4553.000000	23.695431	23.066514	375.457617
4554.000000	22.217291	21.208597	163.032854
4555.000000	25.381126	25.703632	110.976149
4556.000000	21.316038	18.642480	261.709258
4557.000000	23.987364	24.764688	125.866653
4558.000000	24.067997	23.675641	163.446133
4559.000000	22.074041	18.699248	182.912337
4560.000000	25.739522	26.659661	106.253585
4561.000000	22.582079	24.264459	120.683054
4562.000000	26.946380	25.272210	174.610348
4563.000000	26.063596	24.566316	131.158441
4564.000000	27.329779	25.297222	123.733211
4565.000000	27.767245	25.225727	129.039755
4566.000000	27.152309	24.713621	110.861330
4567.000000	24.212860	22.869252	94.808064
4568.000000	22.591140	22.355711	147.036958
4569.000000	27.490862	28.819475	124.432261
4570.000000	26.708543	25.726816	188.105545
4571.000000	23.286569	25.043550	147.959827
4572.000000	25.618845	22.790917	193.092452
4573.000000	24.245431	23.412095	96.092843
4574.000000	28.715765	26.499480	113.294708
4575.000000	28.744271	27.336150	101.717209
4576.000000	29.888735	28.621975	184.728341
4577.000000	24.747653	25.096410	146.358375
4578.000000	26.989822	32.544021	104.408453
4579.000000	26.668775	27.050462	154.899623
4580.000000	29.426779	27.593855	168.369600
4581.000000	29.073838	28.308842	126.178783
4582.000000	27.928935	27.280598	121.268329
4583.000000	28.923939	27.436551	168.109246
4584.000000	24.422603	22.689956	117.556348
4585.000000	26.854621	26.193845	141.747813
4586.000000	29.186422	25.879375	153.692172
4587.000000	31.241072	31.566437	252.337582
4588.000000	32.633438	34.940335	97.174986
4589.000000	30.370767	27.888608	160.589644
4590.000000	29.862426	30.392686	263.397276
4591.000000	28.729724	32.273090	203.355070
4592.000000	31.633548	30.633229	118.616322
4593.000000	29.932124	28.284103	149.231162
4594.000000	32.146080	28.633760	198.048269
4595.000000	34.755845	31.322476	198.077783
4596.000000	29.254041	29.794448	163.234879
4597.000000	31.265694	28.640217	111.449564
4598.000000	30.094177	30.736994	386.409094
4599.000000	33.684345	32.843155	128.633918
4600.000000	31.107869	32.430088	249.884402
4601.000000	29.873065	28.915553	206.701641
4602.000000	28.696681	30.322363	142.630328
4603.000000	29.499769	28.148722	164.750107
4604.000000	30.115685	32.767311	135.983916
4605.000000	34.145416	32.702471	173.866608
4606.000000	35.996567	34.126875	179.749528
4607.000000	38.122306	38.529205	154.724484
4608.000000	34.719409	35.989142	208.035794
4609.000000	34.477667	35.643200	140.098425
4610.000000	36.081625	38.529196	177.186000
4611.000000	35.278541	34.656376	213.787286
4612.000000	33.738627	32.093044	114.397390
4613.000000	32.420255	30.909655	218.530763
4614.000000	35.129236	36.226769	269.261028
4615.000000	32.247330	31.838173	201.706033
4616.000000	33.573075	35.683395	210.545293
4617.000000	40.060394	38.784668	283.745075
4618.000000	41.157205	39.109915	160.890948
4619.000000	34.392747	36.156442	124.311677
4620.000000	40.967611	39.822618	145.912970
4621.000000	39.191577	40.866697	242.667841
4622.000000	39.265356	38.956991	176.340893
4623.000000	39.636600	38.472498	138.567229
4624.000000	38.197367	38.601313	122.558007
4625.000000	39.240902	38.501740	114.193327
4626.000000	40.263065	44.668684	110.954052
4627.000000	31.928751	28.482553	237.525018
4628.000000	35.709169	35.229121	120.386641
4629.000000	37.851544	35.583452	183.833603
4630.000000	38.709888	35.585948	188.439630
4631.000000	39.698235	33.351049	226.879818
4632.000000	45.146340	48.942385	161.182660
4633.000000	42.543754	43.671958	228.332173
4634.000000	42.090689	43.117321	335.426412
4635.000000	41.025166	37.053023	120.733076
4636.000000	40.278941	39.329432	215.416974
4637.000000	39.877887	39.876597	171.831811
4638.000000	42.146802	40.455481	145.478387
4639.000000	42.499257	48.489806	255.436761
4640.000000	43.205806	43.785901	307.614792
4641.000000	41.650159	38.988906	232.170738
4642.000000	44.825441	40.349578	162.695693
4643.000000	44.942475	44.112309	280.203274
4644.000000	42.851159	41.180817	198.889736
4645.000000	44.017056	43.178708	185.675015
4646.000000	43.439109	40.561492	211.367356
4647.000000	43.843046	44.896890	202.291722
4648.000000	43.150752	43.950072	152.723063
4649.000000	51.016949	48.980544	215.425043
4650.000000	46.480664	44.564901	253.190667
4651.000000	47.502018	41.254891	214.566839
4652.000000	49.361995	47.369245	203.540132
4653.000000	50.599058	51.854647	265.522588
4654.000000	45.717937	44.686727	178.559757
4655.000000	42.189145	40.278237	238.411658
4656.000000	51.983939	49.475130	154.659664
4657.000000	57.921325	59.289109	202.973732
4658.000000	50.097112	48.601156	154.218104
4659.000000	51.470176	48.101526	140.435144
4660.000000	54.041934	51.368399	179.057304
4661.000000	49.076778	46.105208	259.383711
4662.000000	42.978632	45.672438	222.101060
4663.000000	49.776155	47.652923	309.997101
4664.000000	52.490572	53.802477	212.508831
4665.000000	53.986166	57.429002	422.733985
4666.000000	56.440325	53.334395	270.888028
4667.000000	58.241886	51.949559	171.562267
4668.000000	49.651161	48.363278	289.892100
4669.000000	52.227125	48.637997	224.756892
4670.000000	51.683645	55.883970	282.480222
4671.000000	49.849188	47.000853	294.620567
4672.000000	60.827298	61.509944	347.647786
4673.000000	51.744051	52.918738	240.332354
4674.000000	51.025255	48.282819	247.552243
4675.000000	61.500368	59.070965	289.199987
4676.000000	56.502739	59.743051	185.801832
4677.000000	55.070142	50.834310	172.362181
4678.000000	63.700037	58.843641	288.397258
4679.000000	54.197108	51.730156	328.434618
4680.000000	53.217955	55.277048	184.252774
4681.000000	49.988218	49.842580	198.294493
4682.000000	51.756102	49.258555	353.730499
4683.000000	59.814442	61.686137	357.689868
4684.000000	60.439405	54.133285	246.351983
4685.000000	50.741962	47.340952	459.507159
4686.000000	51.700773	51.387466	198.522175
4687.000000	67.962074	69.036074	305.659770
4688.000000	59.025748	62.704312	234.376820
4689.000000	46.807837	44.692379	195.240514
4690.000000	53.276588	54.675328	197.277810
4691.000000	54.947020	65.728936	224.681669
4692.000000	53.170834	54.051896	325.721628
4693.000000	53.687933	54.510525	216.780576
4694.000000	48.615958	44.787591	229.811842
4695.000000	47.200291	48.098690	280.013110
4696.000000	55.222876	63.083803	255.917287
4697.000000	48.316067	47.269049	334.735670
4698.000000	49.917644	51.619132	263.563287
4699.000000	50.259816	48.302369	272.015747
4700.000000	46.291323	46.910058	362.104012
4701.000000	51.693854	51.129567	283.423558
4702.000000	54.133040	49.017782	292.393999
4703.000000	50.537500	48.852832	340.903010
4704.000000	53.907129	51.639146	318.631157
4705.000000	56.730140	53.185451	196.291132
4706.000000	47.982376	55.766073	332.960968
4707.000000	52.126852	63.017601	198.185258
4708.000000	43.931991	44.267441	244.608568
4709.000000	47.071173	45.572106	243.704258
4710.000000	42.306176	39.485471	202.544744
4711.000000	51.812618	49.676809	131.017268
4712.000000	47.985869	47.841315	132.280288
4713.000000	44.941360	45.950186	165.585893
4714.000000	45.380557	43.576187	262.074891
4715.000000	47.785680	44.299859	262.691589
4716.000000	44.332323	40.559000	165.578002
4717.000000	45.846847	44.080552	232.331216
4718.000000	48.157959	51.095716	220.067147
4719.000000	42.443880	38.707444	227.862885
4720.000000	43.829906	39.793976	204.358695
4721.000000	47.000298	46.116697	275.187441
4722.000000	43.325140	39.292219	361.433673
4723.000000	41.429116	43.905198	187.667529
4724.000000	44.385124	41.063067	206.447145
4725.000000	45.168664	45.871343	187.780560
4726.000000	40.679833	44.626548	157.989290
4727.000000	41.620774	40.460138	172.029166
4728.000000	40.513857	43.003833	166.842943
4729.000000	42.243161	46.932449	257.952127
4730.000000	37.357717	33.849003	213.678745
4731.000000	40.854577	37.434454	350.097207
4732.000000	39.241532	38.669292	369.101451
4733.000000	41.145955	42.670432	154.405569
4734.000000	35.000560	34.681495	318.622650
4735.000000	37.611978	37.785298	314.074390
4736.000000	38.060116	48.378278	196.416975
4737.000000	37.751586	35.946296	228.282067
4738.000000	37.873526	41.751022	323.443274
4739.000000	38.399211	41.409976	810.331826
4740.000000	38.335353	41.606763	205.544032
4741.000000	34.889349	34.342809	231.989520
4742.000000	34.837573	38.897796	337.899585
4743.000000	34.323423	29.990828	248.336405
4744.000000	31.824780	30.668123	257.579376
4745.000000	40.859030	39.557058	249.265165
4746.000000	40.618386	36.790148	181.191838
4747.000000	35.293235	36.535095	175.276402
4748.000000	37.683203	37.903144	592.419546
4749.000000	36.663888	34.291061	260.966912
4750.000000	33.548103	35.469764	154.907340
4751.000000	34.731798	42.416390	240.631713
4752.000000	31.191012	28.844920	156.560781
4753.000000	31.161310	30.345833	182.679064
4754.000000	32.801278	33.897488	115.916796
4755.000000	37.284401	38.195225	195.152894
4756.000000	33.848655	31.814255	222.170400
4757.000000	32.378963	31.964518	288.978954
4758.000000	33.469703	38.004265	231.669885
4759.000000	31.445974	27.184994	474.835653
4760.000000	32.503573	31.019702	242.227597
4761.000000	30.079780	28.635644	165.613985
4762.000000	30.255109	27.637618	340.706067
4763.000000	31.908788	32.981148	200.986970
4764.000000	31.655444	31.776892	350.593174
4765.000000	32.059228	32.376511	217.905157
4766.000000	28.842925	27.119861	222.444602
4767.000000	27.269766	29.356469	109.243074
4768.000000	28.705308	29.793294	273.557238
4769.000000	29.198455	30.398535	188.807370
4770.000000	27.754332	25.783495	175.787987
4771.000000	31.939110	30.400723	167.395568
4772.000000	29.255832	28.540683	169.890733
4773.000000	28.263013	28.890179	278.575153
4774.000000	30.266219	30.396418	156.561187
4775.000000	27.919644	27.942118	128.959593
4776.000000	29.552106	31.982216	197.910439
4777.000000	26.985117	29.550663	98.855527
4778.000000	26.724044	25.659155	144.700431
4779.000000	25.784772	24.132938	169.629289
4780.000000	23.230273	22.900756	104.536050
4781.000000	25.909350	27.459858	370.376142
4782.000000	22.893404	22.240876	318.627297
4783.000000	23.619414	23.351874	121.483664
4784.000000	26.375372	26.623903	344.492796
4785.000000	25.236975	25.466112	187.584657
4786.000000	23.568718	23.060134	270.353774
4787.000000	23.463106	21.030731	487.231561
4788.000000	28.418655	27.043554	97.412316
4789.000000	24.761905	25.862729	278.521454
4790.000000	27.351321	25.202545	292.995501
4791.000000	27.171939	27.608033	346.745261
4792.000000	24.925854	23.630733	141.732181
4793.000000	25.297210	27.829894	177.556481
4794.000000	23.073893	21.875029	187.880493
4795.000000	23.156786	22.742798	492.794394
4796.000000	25.182018	23.969847	141.583154
4797.000000	23.266061	23.234081	401.365112
4798.000000	25.976119	25.443400	372.928982
4799.000000	23.427945	22.622987	294.436575
4800.000000	22.274471	20.965532	303.871345
4801.000000	22.596103	21.833941	253.687790
4802.000000	21.950833	21.854262	244.287865
4803.000000	23.136657	23.958715	209.136351
4804.000000	23.869198	19.653937	393.467549
4805.000000	23.867135	23.307481	353.496860
4806.000000	23.191725	23.022369	790.780720
4807.000000	23.117038	25.883805	268.965376
4808.000000	22.056959	21.759964	293.010509
4809.000000	20.906451	20.961526	544.146889
4810.000000	23.111484	22.339067	332.084008
4811.000000	20.047397	21.630006	550.938103
4812.000000	20.594633	20.057238	321.441320
4813.000000	19.405393	19.660400	194.254997
4814.000000	19.874970	20.074320	402.621022
4815.000000	20.844688	23.758227	361.625560
4816.000000	24.886234	28.833568	182.737310
4817.000000	17.865689	20.576538	424.797587
4818.000000	20.840440	19.818932	262.146097
4819.000000	20.826709	20.829864	306.614730
4820.000000	20.750038	20.147661	363.255607
4821.000000	19.919794	22.115326	127.200502
4822.000000	22.131930	20.555771	176.853017
4823.000000	21.394040	19.785881	395.130026
4824.000000	19.610517	18.713039	204.436017
4825.000000	21.710011	19.970485	107.541952
4826.000000	20.823742	20.592127	157.812669
4827.000000	21.610763	20.045173	135.402788
4828.000000	19.768449	21.507073	127.789649
4829.000000	21.068234	22.660688	113.003193
4830.000000	20.627256	21.975613	110.724578
4831.000000	20.259873	22.023541	84.861602
4832.000000	18.997690	17.434857	194.751914
4833.000000	21.251069	21.590523	93.263221
4834.000000	20.202012	19.032326	70.666897
4835.000000	19.628764	18.881986	99.517857
4836.000000	21.043901	18.805366	83.495145
4837.000000	19.605421	18.853211	109.559837
4838.000000	19.076506	18.252724	103.057184
4839.000000	17.319182	16.085787	170.217626
4840.000000	17.617767	17.624575	74.035707
4841.000000	19.817154	20.924609	86.387922
4842.000000	17.243570	15.946245	111.941879
4843.000000	18.967163	18.288673	134.048520
4844.000000	18.559423	18.328216	81.730375
4845.000000	19.077958	20.102095	134.978494
4846.000000	19.358262	20.011423	87.914621
4847.000000	17.634206	18.356775	115.342105
4848.000000	17.227619	17.807157	65.307793
4849.000000	20.858001	23.034581	68.366991
4850.000000	19.162246	21.026766	93.016142
4851.000000	18.700575	20.379304	74.329301
4852.000000	17.898359	16.320421	112.066271
4853.000000	17.381492	17.119717	71.130159
4854.000000	16.826392	15.963621	79.278372
4855.000000	17.939109	17.256464	70.225519
4856.000000	17.569561	16.663164	75.405842
4857.000000	18.146871	17.894572	86.285477
4858.000000	16.519643	15.859073	105.904996
4859.000000	17.428621	18.188554	118.651294
4860.000000	17.269416	15.794505	112.009184
4861.000000	16.392447	16.875137	81.069493
4862.000000	17.326573	18.129940	72.881592
4863.000000	15.827900	15.589930	116.463322
4864.000000	17.089166	15.591028	79.990562
4865.000000	19.352341	17.538961	76.308645
4866.000000	16.656750	14.748973	90.396108
4867.000000	14.700126	13.582272	76.389674
4868.000000	18.622608	18.718276	92.976441
4869.000000	16.262352	15.456274	61.401134
4870.000000	17.397143	17.129342	90.311479
4871.000000	14.748605	14.173933	109.715380
4872.000000	15.797685	16.997439	83.348870
4873.000000	16.168052	15.161348	92.347400
4874.000000	16.228463	17.005269	80.192223
4875.000000	16.902831	19.665582	69.693212
4876.000000	18.120480	18.168879	116.797154
4877.000000	16.545430	18.282209	90.270510
4878.000000	18.077278	16.597209	71.032883
4879.000000	15.817297	16.146160	151.767298
4880.000000	14.933549	15.888724	100.820296
4881.000000	14.970765	13.361107	111.377620
4882.000000	14.981722	13.740359	87.149049
4883.000000	16.647298	15.905530	46.423319
4884.000000	14.315318	14.160038	52.606746
4885.000000	15.649283	15.518590	91.588438
4886.000000	15.365703	15.374469	57.074453
4887.000000	15.387140	16.200502	74.367037
4888.000000	14.511388	14.756856	57.794858
4889.000000	14.970816	13.850685	67.960217
4890.000000	13.958443	12.352081	49.501118
4891.000000	14.520391	14.556886	77.635427
4892.000000	16.072465	17.089909	53.857311
4893.000000	14.583241	12.437106	57.728195
4894.000000	14.235040	15.458108	73.629119
4895.000000	14.210243	13.752632	59.698475
4896.000000	13.784813	15.056726	112.952764
4897.000000	14.186474	13.795451	114.214019
4898.000000	15.149594	13.754114	121.339655
4899.000000	19.500010	19.684299	118.742611
4900.000000	13.949142	13.689420	115.768652
4901.000000	14.297338	13.286376	110.747023
4902.000000	13.994090	13.273992	112.730638
4903.000000	15.306558	14.617029	164.245744
4904.000000	16.356412	18.503159	173.223853
4905.000000	13.791734	12.949169	107.421346
4906.000000	16.085728	15.298542	50.791203
4907.000000	14.338556	15.369268	68.898666
4908.000000	13.799211	14.262830	94.492507
4909.000000	13.030374	11.909643	175.703030
4910.000000	14.918316	15.815391	108.623643
4911.000000	14.072975	14.346401	143.830359
4912.000000	14.358742	14.306521	135.239886
4913.000000	14.250289	16.693583	151.266007
4914.000000	15.781867	15.454414	206.761703
4915.000000	15.449666	16.265965	63.524899
4916.000000	15.279431	15.597209	144.362938
4917.000000	15.227458	18.237470	266.388066
4918.000000	16.097315	15.880381	102.755690
4919.000000	15.160387	13.931212	127.879770
4920.000000	16.515323	17.358294	97.907719
4921.000000	15.058546	15.279611	182.282086
4922.000000	14.595570	15.004385	291.490554
4923.000000	16.107233	16.730968	327.502174
4924.000000	15.952204	17.531022	218.007670
4925.000000	14.492818	15.352860	285.000062
4926.000000	16.379601	17.309524	341.869934
4927.000000	15.368760	17.928780	196.076570
4928.000000	15.999280	15.634610	176.934772
4929.000000	17.826326	21.134106	300.481616
4930.000000	15.551563	14.974137	164.103594
4931.000000	15.221578	14.830811	150.636958
4932.000000	16.699411	16.601602	254.437549
4933.000000	17.367533	15.220827	321.365899
4934.000000	18.213061	16.594163	178.545152
4935.000000	19.336424	20.812227	213.014062
4936.000000	15.506216	14.633199	139.644938
4937.000000	15.193568	14.053935	200.419880
4938.000000	21.068492	23.982398	179.672047
4939.000000	17.355574	19.258185	234.322403
4940.000000	16.111343	17.262955	228.392917
4941.000000	17.694173	17.805730	271.383145
4942.000000	17.844930	16.392186	360.236097
4943.000000	16.935948	18.157846	194.636249
4944.000000	16.933180	15.496544	253.235015
4945.000000	18.635652	19.242244	386.786806
4946.000000	18.263690	17.221280	103.860639
4947.000000	21.305105	19.080685	322.308451
4948.000000	19.546414	18.855304	192.211769
4949.000000	17.820192	17.529751	232.923753
4950.000000	20.432432	19.325775	75.570122
4951.000000	17.794312	16.871332	219.518998
4952.000000	17.253686	16.351276	222.913229
4953.000000	17.259535	16.640043	91.119292
4954.000000	21.767552	22.462736	223.068078
4955.000000	18.616964	20.969148	165.367010
4956.000000	20.281640	19.980990	221.320247
4957.000000	21.203344	23.243310	342.775610
4958.000000	19.537381	19.477778	194.306053
4959.000000	21.973388	20.544325	238.888084
4960.000000	22.371947	21.769208	132.533131
4961.000000	24.172927	24.126403	190.806533
4962.000000	20.546731	22.506854	272.873499
4963.000000	20.768939	25.983836	195.502487
4964.000000	22.092616	21.150632	711.780896
4965.000000	19.723712	18.175233	258.263558
4966.000000	23.115357	20.880113	184.144337
4967.000000	24.775970	23.363993	497.588219
4968.000000	20.740336	18.508334	237.943194
4969.000000	21.580562	20.094945	166.464874
4970.000000	21.922562	22.584811	375.073630
4971.000000	24.023001	24.146929	225.211449
4972.000000	23.447350	22.535983	299.892957
4973.000000	21.173038	20.258528	447.082267
4974.000000	23.723161	23.297677	225.724588
4975.000000	24.788278	22.673025	617.095524
4976.000000	24.355347	27.278287	433.103624
4977.000000	21.948833	19.984390	177.523849
4978.000000	23.963505	23.709176	257.676015
4979.000000	24.010201	23.335049	454.369143
4980.000000	25.714603	24.505542	172.173880
4981.000000	25.009643	26.417695	290.499310
4982.000000	23.587431	21.140398	217.451177
4983.000000	24.156246	27.924882	429.533191
4984.000000	23.499897	23.899633	444.402070
4985.000000	25.197730	24.843561	202.799115
4986.000000	25.887830	26.070715	626.328574
4987.000000	29.559253	28.499325	239.580920
4988.000000	26.077109	28.828159	280.086735
4989.000000	25.707132	23.788309	328.504255
4990.000000	24.961342	25.583627	621.384496
4991.000000	24.223598	25.705725	228.788506
4992.000000	28.995329	30.750395	926.410665
4993.000000	25.621514	28.095851	535.324826
4994.000000	27.924367	30.842913	539.236439
4995.000000	27.684072	29.391433	551.837763
4996.000000	28.367101	27.974813	421.316442
4997.000000	27.257054	27.214576	709.649156
4998.000000	30.048680	31.066902	721.219323
4999.000000	27.076248	26.881694	279.646948
5000.000000	28.050016	28.213177	395.766664
5001.000000	30.353085	28.302234	707.174458
5002.000000	28.180311	28.333333	235.920701
5003.000000	29.386416	25.366656	201.495795
5004.000000	31.576353	29.625855	215.061765
5005.000000	26.180684	23.596250	202.746121
5006.000000	28.210605	33.315235	411.289434
5007.000000	26.782944	23.441029	130.115830
5008.000000	28.945615	31.785946	167.390677
5009.000000	26.601311	25.153637	116.282332
5010.000000	28.095086	30.512971	240.017375
5011.000000	28.989790	31.175285	107.541913
5012.000000	26.102731	26.608060	110.607296
5013.000000	25.905888	28.150004	218.638171
5014.000000	28.606526	31.205078	422.054974
5015.000000	28.878741	26.123739	111.706342
5016.000000	27.727448	28.725131	110.441805
5017.000000	31.872479	28.736384	153.562127
5018.000000	27.477727	27.630429	138.416323
5019.000000	26.028123	28.166166	131.332250
5020.000000	27.116772	23.955200	84.392482
5021.000000	28.736512	24.314336	118.400743
5022.000000	24.850966	24.545862	209.026513
5023.000000	29.405374	28.042074	113.384848
5024.000000	28.730610	30.448852	149.080082
5025.000000	27.257200	27.905954	104.806542
5026.000000	26.550545	24.694042	137.179056
5027.000000	28.931769	27.818532	181.154246
5028.000000	25.897750	25.612579	93.324053
5029.000000	25.296100	24.555378	164.729121
5030.000000	30.029431	25.920009	136.959481
5031.000000	29.407835	33.132123	171.608209
5032.000000	32.054693	33.246393	132.403573
5033.000000	25.161876	27.181414	165.086954
5034.000000	25.145283	23.690359	154.616700
5035.000000	25.562930	27.519356	147.409634
5036.000000	29.014203	24.795782	114.057575
5037.000000	21.543239	21.643142	135.349334
5038.000000	24.756893	26.349987	132.919937
5039.000000	27.044803	28.843970	107.174598
5040.000000	27.748865	28.575808	238.267407
5041.000000	26.693538	25.586568	93.029406
5042.000000	25.948947	27.269426	103.674670
5043.000000	22.011644	23.009195	123.925144
5044.000000	25.354362	25.264119	176.013761
5045.000000	27.119143	25.513948	149.058578
5046.000000	28.854602	26.348681	108.696339
5047.000000	23.490368	23.493019	141.822612
5048.000000	26.042674	26.330901	114.614446
5049.000000	23.356931	22.222865	141.751245
5050.000000	21.798331	19.991857	242.800678
5051.000000	23.880386	24.216920	177.565816
5052.000000	26.824391	29.508842	138.804796
5053.000000	26.336636	31.437559	225.925543
5054.000000	27.033664	30.836923	193.409033
5055.000000	25.102633	23.583003	93.101522
5056.000000	22.230953	22.662728	369.199663
5057.000000	21.928359	20.772702	148.358103
5058.000000	22.263365	20.777874	210.500732
5059.000000	22.931250	23.131250	119.981424
5060.000000	24.112651	25.078660	274.240132
5061.000000	22.773423	25.139244	135.595201
5062.000000	23.434345	23.908101	246.832217
5063.000000	22.450661	22.605611	163.900670
5064.000000	22.469771	22.866535	125.116988
5065.000000	25.495783	23.897449	109.418910
5066.000000	18.240003	18.605368	105.647071
5067.000000	20.656371	19.366083	202.977613
5068.000000	18.993956	18.491790	253.272108
5069.000000	19.803115	20.159708	128.437150
5070.000000	22.197766	23.054897	311.311999
5071.000000	22.052076	20.006771	113.903105
5072.000000	23.416837	22.999901	101.317091
5073.000000	22.169416	22.403132	159.879104
5074.000000	20.805933	21.057972	187.428661
5075.000000	21.475848	21.897432	183.853290
5076.000000	21.252295	21.280387	254.311530
5077.000000	19.419317	17.612878	89.228449
5078.000000	18.414736	16.209055	241.957087
5079.000000	17.433001	17.017063	185.224217
5080.000000	20.831683	18.778632	230.568827
5081.000000	19.798564	17.402101	353.415980
5082.000000	21.236218	22.698771	200.032390
5083.000000	21.127989	20.022675	141.055375
5084.000000	19.663842	20.846950	166.017860
5085.000000	20.107401	19.504781	145.203823
5086.000000	19.785933	18.784125	223.340514
5087.000000	18.570764	17.904382	275.169518
5088.000000	20.871515	19.718595	103.907754
5089.000000	17.389785	15.696009	333.204437
5090.000000	17.671852	19.949142	149.163479
5091.000000	15.473067	14.382115	124.945461
5092.000000	16.405349	17.706337	259.998675
5093.000000	18.996485	21.156132	126.740642
5094.000000	18.736679	18.432197	82.274112
5095.000000	19.369709	19.115768	172.451713
5096.000000	19.071165	18.211297	152.676176
5097.000000	15.981858	14.460248	235.075115
5098.000000	19.662231	17.368594	92.704257
5099.000000	17.082629	17.905119	93.534224
5100.000000	17.273372	16.739080	68.098760
5101.000000	16.368226	17.830958	159.354350
5102.000000	17.838748	17.650993	217.395660
5103.000000	15.169335	15.105534	202.640675
5104.000000	13.966896	12.881918	67.862007
5105.000000	17.076328	17.070529	124.796418
5106.000000	15.809764	16.000955	100.288494
5107.000000	15.650652	15.913055	40.529892
5108.000000	16.649710	17.764577	80.192375
5109.000000	15.399704	16.117045	81.326613
5110.000000	18.470194	18.839679	48.639592
5111.000000	15.697420	16.233941	105.907878
5112.000000	16.544452	17.378426	70.658131
5113.000000	14.482655	14.359078	76.579877
5114.000000	16.282977	14.327779	66.007346
5115.000000	15.783241	14.493060	46.481065
5116.000000	14.304011	13.448491	111.685511
5117.000000	13.993105	15.320968	120.044560
5118.000000	14.046123	15.170969	89.023773
5119.000000	14.100513	13.825169	67.374992
5120.000000	13.120713	12.819211	47.748897
5121.000000	14.580470	14.005990	93.250447
5122.000000	14.779499	15.748881	85.271079
5123.000000	16.067927	14.713001	69.529963
5124.000000	13.199486	12.125614	74.822471
5125.000000	12.850791	11.508729	103.537725
5126.000000	13.387493	13.327256	97.680388
5127.000000	12.998133	11.587284	108.818936
5128.000000	14.828096	13.671210	103.583963
5129.000000	14.591839	15.184800	139.298524
5130.000000	12.914642	12.514637	74.194318
5131.000000	12.824564	12.501620	118.395372
5132.000000	13.329593	12.449156	96.026966
5133.000000	12.563949	12.614566	155.286710
5134.000000	11.432352	12.039582	288.782711
5135.000000	12.544370	12.229297	74.095625
5136.000000	12.269145	12.175105	98.081890
5137.000000	11.626725	11.029948	176.106813
5138.000000	12.940924	14.159375	87.683689
5139.000000	11.785957	10.378301	335.457117
5140.000000	13.267069	13.546963	185.242780
5141.000000	12.639471	13.417771	73.661474
5142.000000	12.021861	11.616308	252.767092
5143.000000	10.364151	9.619884	372.360138
5144.000000	11.569357	11.118343	191.174565
5145.000000	10.470521	10.777000	413.979914
5146.000000	11.135630	11.513628	462.774211
5147.000000	12.194316	12.357155	432.782555
5148.000000	11.266462	10.729568	431.688373
5149.000000	13.179847	12.754317	317.695166
5150.000000	11.312361	11.871813	366.621493
5151.000000	11.339212	10.857726	524.801855
5152.000000	10.484379	10.789974	362.740049
5153.000000	10.507772	11.022858	473.543937
5154.000000	12.371145	11.820122	650.798451
5155.000000	11.366672	10.884317	379.283200
5156.000000	11.393684	12.264240	663.486745
5157.000000	10.875173	11.167037	528.903388
5158.000000	12.076754	12.127267	422.967987
5159.000000	9.576977	9.804839	855.841456
5160.000000	10.266195	9.450943	364.061072
5161.000000	10.238253	10.359259	725.467789
5162.000000	10.242767	10.064018	673.367604
5163.000000	9.643164	8.892102	253.267855
5164.000000	10.480814	9.709561	448.856776
5165.000000	9.842212	9.842202	616.145441
5166.000000	10.056046	11.140070	312.923343
5167.000000	9.260926	8.878230	695.377710
5168.000000	9.112191	7.879105	575.229644
5169.000000	8.146949	7.505275	336.594530
5170.000000	10.341465	10.565829	672.651347
5171.000000	8.575231	8.849337	185.862188
5172.000000	8.957156	8.605692	736.093974
5173.000000	9.148124	9.069063	572.169024
5174.000000	10.066124	9.250980	528.352113
5175.000000	9.258560	9.412548	536.297213
5176.000000	8.299112	7.724660	658.900240
5177.000000	8.016792	7.885153	516.152423
5178.000000	9.128689	8.747017	622.944184
5179.000000	8.580091	8.262593	621.311642
5180.000000	8.441237	7.904010	517.811505
5181.000000	8.167682	7.842969	861.089271
5182.000000	7.183726	7.392320	623.816745
5183.000000	6.747731	6.265535	506.100545
5184.000000	8.051276	6.886242	883.099244
5185.000000	7.750583	9.036710	595.924608
5186.000000	7.452194	6.836001	737.119718
5187.000000	7.845420	7.197502	993.473025
5188.000000	7.664693	8.247996	295.292809
5189.000000	6.337428	6.713123	666.976459
5190.000000	6.523951	5.926075	590.112573
5191.000000	7.172820	6.347967	509.228846
5192.000000	7.895573	7.725671	789.347748
5193.000000	6.938649	6.857173	615.998882
5194.000000	7.700702	7.206126	394.839683
5195.000000	7.044215	6.690625	770.042549
5196.000000	6.650254	6.668450	416.909344
5197.000000	6.033238	6.494876	547.527254
5198.000000	6.904018	6.525777	557.465418
5199.000000	6.429995	6.468669	473.398822
5200.000000	5.791918	6.139475	682.588750
5201.000000	6.439583	6.841376	583.154083
5202.000000	6.230325	6.403797	350.483008
5203.000000	6.651635	7.786717	737.972505
5204.000000	5.589005	4.731835	356.917392
5205.000000	5.612202	5.292574	330.557752
5206.000000	7.093045	6.341152	525.351321
5207.000000	6.194285	6.335073	530.016950
5208.000000	6.698779	7.190485	450.742125
5209.000000	6.028953	6.540983	426.015480
5210.000000	6.733347	6.369913	336.760814
5211.000000	5.811703	6.022101	498.835730
5212.000000	5.113217	5.308032	530.906469
5213.000000	6.458218	5.525921	243.320719
5214.000000	6.054577	5.673267	463.639016
5215.000000	6.160434	6.435320	385.846331
5216.000000	5.762817	5.865203	350.596375
5217.000000	6.363084	6.765911	760.341054
5218.000000	5.870381	5.449915	449.635302
5219.000000	5.647509	5.422618	410.292935
5220.000000	6.572150	6.819725	828.515299
5221.000000	5.537020	5.597171	424.511030
5222.000000	5.406295	5.257182	550.171372
5223.000000	6.817252	6.467848	786.340931
5224.000000	5.840959	6.252294	414.628034
5225.000000	5.811714	6.378657	630.169344
5226.000000	6.065238	6.137026	741.503756
5227.000000	5.401215	5.327178	371.960894
5228.000000	5.025871	5.475388	563.390070
5229.000000	5.344095	5.375067	391.907319
5230.000000	4.388248	3.824941	326.126166
5231.000000	5.755748	5.303342	560.242762
5232.000000	4.737620	4.335705	455.621788
5233.000000	5.263772	5.491217	313.990382
5234.000000	6.034929	5.746493	510.402371
5235.000000	4.881752	5.077238	290.336054
5236.000000	4.731273	4.498911	421.856106
5237.000000	4.966045	4.982571	492.699247
5238.000000	5.541244	5.313618	219.646106
5239.000000	5.403831	5.408310	565.567158
5240.000000	5.099659	4.750676	412.840902
5241.000000	6.128737	5.965751	320.567160
5242.000000	4.850408	4.853496	592.005723
5243.000000	4.085476	4.144662	407.054362
5244.000000	4.665311	4.189832	261.266501
5245.000000	4.929398	5.052468	492.334085
5246.000000	4.602262	4.824191	299.612979
5247.000000	4.073815	3.767562	336.443002
5248.000000	5.283317	5.149238	404.007472
5249.000000	4.326267	4.241696	211.867728
5250.000000	4.437281	4.517045	309.804835
5251.000000	4.632118	4.459412	306.268460
5252.000000	5.071178	4.604320	195.710164
5253.000000	4.846422	5.021623	359.228205
5254.000000	4.504472	4.903852	249.542258
5255.000000	4.376411	4.061178	158.095208
5256.000000	4.815349	4.540958	372.853664
5257.000000	4.540059	4.318271	281.756749
5258.000000	3.858965	3.549654	184.219583
5259.000000	4.435274	4.404275	340.499377
5260.000000	4.365636	4.572962	175.636195
5261.000000	4.561302	4.391681	318.946475
5262.000000	3.740435	3.929578	385.595427
5263.000000	4.394640	4.089571	169.539697
5264.000000	4.617345	4.585483	283.139989
5265.000000	4.893925	4.879571	281.796020
5266.000000	4.712379	4.345678	188.006170
5267.000000	4.561333	4.147641	327.149632
5268.000000	4.735307	4.473676	178.450039
5269.000000	4.345956	4.306738	319.968779
5270.000000	4.651527	4.861386	402.388193
5271.000000	4.247565	4.080252	178.175406
5272.000000	4.164701	3.610579	319.879557
5273.000000	4.228134	4.058140	330.344785
5274.000000	4.064978	4.598182	133.680684
5275.000000	3.984460	3.753320	312.276893
5276.000000	3.956307	3.953310	331.445530
5277.000000	3.344660	3.478321	169.477973
5278.000000	4.089176	3.714284	314.595188
5279.000000	3.688387	3.253510	242.056980
5280.000000	4.094230	4.392863	163.354806
5281.000000	4.297566	4.182404	273.813896
5282.000000	3.973403	3.815194	166.562674
5283.000000	3.788473	3.490840	234.225812
5284.000000	4.211242	3.970965	299.951986
5285.000000	3.721129	3.799168	152.575971
5286.000000	3.271423	2.969472	164.884266
5287.000000	3.595830	3.745398	206.341160
5288.000000	3.446357	3.655151	143.859078
5289.000000	3.525406	3.608937	199.239543
5290.000000	3.714571	3.416297	214.082660
5291.000000	4.204431	4.089217	168.772894
5292.000000	3.384284	3.366858	222.113398
5293.000000	3.339487	3.004968	133.308045
5294.000000	3.907238	3.454262	115.029456
5295.000000	4.237839	3.900260	212.234033
5296.000000	3.668952	3.888685	114.055467
5297.000000	3.449266	3.193735	126.355905
5298.000000	4.044330	3.820329	157.357505
5299.000000	3.958252	3.993767	81.840401
5300.000000	3.398176	3.705408	206.985912
5301.000000	3.203198	3.394766	176.285025
5302.000000	2.993550	2.840071	107.316526
5303.000000	3.613039	4.008869	181.537415
5304.000000	3.273304	3.527193	125.721669
5305.000000	3.162201	3.016193	121.712480
5306.000000	3.730932	3.446243	173.253872
5307.000000	3.356469	3.451003	223.846816
5308.000000	3.594637	3.433608	174.037624
5309.000000	2.985779	2.972809	276.578192
5310.000000	3.295230	3.568580	105.604790
5311.000000	2.847135	3.005530	173.592238
5312.000000	2.734542	2.654220	129.097162
5313.000000	2.941441	2.950967	80.968851
5314.000000	2.621298	2.746972	141.192587
5315.000000	2.585576	2.500229	136.251459
5316.000000	2.768210	2.804147	86.483373
5317.000000	2.750227	2.532853	134.458764
5318.000000	2.729391	2.684661	136.495539
5319.000000	2.906264	2.839867	111.430177
5320.000000	2.710097	2.444456	96.726003
5321.000000	2.861384	2.685270	87.577236
5322.000000	2.576433	2.811853	129.481986
5323.000000	2.382789	2.262014	81.371164
5324.000000	2.252833	2.343307	41.360316
5325.000000	2.661133	2.494944	71.835159
5326.000000	2.546508	2.494880	79.888359
5327.000000	2.447850	2.434207	29.398140
5328.000000	2.242397	2.499239	119.510022
5329.000000	2.236155	2.063751	81.457182
5330.000000	2.438476	2.230840	49.506830
5331.000000	2.407961	2.266496	87.483851
5332.000000	2.121132	1.931333	62.808124
5333.000000	2.237026	2.352003	90.729482
5334.000000	2.203408	2.030560	87.192152
5335.000000	2.393924	2.343025	42.979122
5336.000000	2.056289	1.928623	107.971659
5337.000000	2.127466	2.232842	109.566743
5338.000000	2.109187	1.966094	74.102790
5339.000000	1.862905	1.803176	71.680396
5340.000000	1.885303	1.979983	74.598984
5341.000000	1.953087	2.075412	60.976357
5342.000000	2.065759	1.881583	74.220028
5343.000000	1.631816	1.392760	85.453791
5344.000000	1.691088	1.810302	60.831957
5345.000000	1.790796	1.588942	98.356264
5346.000000	1.810167	1.959883	64.815539
5347.000000	1.960735	1.832938	90.134697
5348.000000	1.682268	1.758875	82.005456
5349.000000	1.976009	2.026300	52.749961
5350.000000	1.634997	1.656596	142.038890
5351.000000	1.664486	1.708013	97.916114
5352.000000	1.668904	1.694445	60.703789
5353.000000	1.786569	1.973720	116.764669
5354.000000	1.817900	1.947119	115.288501
5355.000000	2.029682	1.875492	75.001958
5356.000000	1.591759	1.572439	151.178471
5357.000000	1.653902	1.574379	124.004275
5358.000000	1.602553	1.690075	159.544159
5359.000000	1.567846	1.598886	167.419966
5360.000000	1.532462	1.584599	94.674029
5361.000000	1.847645	1.820553	204.601966
5362.000000	1.627604	1.595310	250.700273
5363.000000	1.521079	1.488378	120.194870
5364.000000	1.449437	1.535870	176.936225
5365.000000	1.507528	1.439103	209.946479
5366.000000	1.496315	1.481297	165.596544
5367.000000	1.572944	1.696430	258.405937
5368.000000	1.401545	1.494333	214.422798
5369.000000	1.763455	1.779013	151.350586
5370.000000	1.391582	1.306333	248.847906
5371.000000	1.620532	1.543834	140.059218
5372.000000	1.487677	1.582191	248.997289
5373.000000	1.519468	1.545517	278.460336
5374.000000	1.356710	1.579490	159.149210
5375.000000	1.416342	1.416708	246.201272
5376.000000	1.244998	1.300564	258.216506
5377.000000	1.298118	1.242530	181.746235
5378.000000	1.332651	1.223792	361.838564
5379.000000	1.396622	1.539063	241.288540
5380.000000	1.363623	1.221030	191.278977
5381.000000	1.375133	1.332369	236.005841
5382.000000	1.272887	1.154082	179.992908
5383.000000	1.256548	1.383992	230.219436
5384.000000	1.419600	1.378713	312.009949
5385.000000	1.360202	1.259700	168.546573
5386.000000	1.142885	1.044924	269.709202
5387.000000	1.289435	1.197209	254.520563
5388.000000	1.267637	1.245729	143.073029
5389.000000	1.240378	1.238647	244.437114
5390.000000	1.240445	1.255268	265.638490
5391.000000	1.352460	1.314806	198.962283
5392.000000	1.343293	1.204126	293.629016
5393.000000	1.245395	1.212843	281.215816
5394.000000	1.131536	1.304197	176.150197
5395.000000	1.285138	1.295028	295.416640
5396.000000	1.243350	1.299840	197.774565
5397.000000	1.304133	1.418877	274.386624
5398.000000	1.196069	1.139718	356.996753
5399.000000	1.175809	1.109909	190.635370
5400.000000	1.134551	1.125014	313.219424
5401.000000	0.987815	0.969452	405.172017
5402.000000	1.109232	1.057293	198.879192
5403.000000	1.229925	1.281733	368.801836
5404.000000	1.239332	1.169320	292.242261
5405.000000	1.093687	1.136153	239.004360
5406.000000	1.196701	1.126723	343.838876
5407.000000	1.151336	1.124497	298.036600
5408.000000	1.055246	1.176788	278.122427
5409.000000	1.182170	1.162796	386.685031
5410.000000	1.085248	1.100603	183.582393
5411.000000	1.144566	1.023263	286.587357
5412.000000	1.182300	1.072600	295.328033
5413.000000	1.329316	1.361210	144.349536
5414.000000	1.235846	1.147799	283.704876
5415.000000	1.224181	1.180240	284.058198
5416.000000	1.109673	0.968142	192.972750
5417.000000	0.985431	0.887834	300.176475
5418.000000	1.225278	1.283342	191.688439
5419.000000	0.986742	0.974869	227.170280
5420.000000	1.055524	1.029526	311.116604
5421.000000	1.234181	1.304067	183.884697
5422.000000	1.003213	0.994773	206.711767
5423.000000	1.125114	1.120074	307.705342
5424.000000	1.026218	0.980958	162.308565
5425.000000	1.044767	0.998730	251.249319
5426.000000	0.971155	0.984944	302.972239
5427.000000	0.963311	1.006727	144.124281
5428.000000	0.966407	0.960385	282.192801
5429.000000	0.992430	0.982128	233.069576
5430.000000	0.928274	0.925956	175.843130
5431.000000	0.955242	0.899284	283.674210
5432.000000	1.054976	1.098748	248.633931
5433.000000	0.974804	0.940934	200.779446
5434.000000	1.084124	1.074403	333.804803
5435.000000	1.019634	0.998294	185.309484
5436.000000	1.042885	1.054506	275.478637
5437.000000	1.003417	1.002900	294.928310
5438.000000	0.954839	0.962387	159.617320
5439.000000	0.881101	0.863609	305.986099
5440.000000	0.980019	0.932329	309.151397
5441.000000	1.048422	0.928135	178.801064
5442.000000	0.975497	0.988784	330.636578
5443.000000	0.965880	0.966258	288.827232
5444.000000	1.192917	1.147032	233.936344
5445.000000	0.901903	0.871699	369.588937
5446.000000	0.979725	0.997281	187.563743
5447.000000	0.862975	0.815627	333.547360
5448.000000	0.826943	0.870453	365.144815
5449.000000	0.824717	0.763129	188.998989
5450.000000	0.932318	0.975785	378.311591
5451.000000	0.870007	0.822321	369.126044
5452.000000	0.914657	0.878616	204.814854
5453.000000	0.822055	0.847314	352.102402
5454.000000	0.746720	0.697855	339.843144
5455.000000	0.837036	0.811730	248.388871
5456.000000	0.750403	0.826009	400.213977
5457.000000	0.825549	0.801386	259.257679
5458.000000	0.740777	0.814367	340.875033
5459.000000	0.925582	1.017453	376.251928
5460.000000	0.733587	0.852573	214.719502
5461.000000	0.823265	0.818189	371.471260
5462.000000	0.851420	0.762251	369.015607
5463.000000	0.859190	0.814896	205.585713
5464.000000	0.618127	0.631485	337.184544
5465.000000	0.771831	0.820703	323.903925
5466.000000	0.639808	0.674955	227.341050
5467.000000	0.719254	0.723111	395.500885
5468.000000	0.687209	0.738155	311.672207
5469.000000	0.712323	0.754046	237.124372
5470.000000	0.723830	0.762211	360.823215
5471.000000	0.571976	0.598971	252.142218
5472.000000	0.804244	0.775576	381.199238
5473.000000	0.707591	0.649009	408.343764
5474.000000	0.653299	0.656798	206.604261
5475.000000	0.635579	0.678629	400.182661
5476.000000	0.694144	0.678047	433.339767
5477.000000	0.694796	0.650394	233.461295
5478.000000	0.686734	0.699384	459.701714
5479.000000	0.661813	0.681885	345.219278
5480.000000	0.641375	0.654591	236.777500
5481.000000	0.570785	0.597434	438.961453
5482.000000	0.585331	0.541192	273.445440
5483.000000	0.570797	0.503092	357.640336
5484.000000	0.648144	0.634235	416.656069
5485.000000	0.588995	0.592406	224.788885
5486.000000	0.667883	0.613869	363.751687
5487.000000	0.603411	0.608615	407.727597
5488.000000	0.965952	0.883072	191.505811
5489.000000	0.595002	0.573441	366.344600
5490.000000	0.560936	0.488740	266.904849
5491.000000	0.826422	0.778613	215.235887
5492.000000	0.492645	0.493290	385.848831
5493.000000	0.467922	0.467725	277.238069
5494.000000	0.540936	0.608674	224.323144
5495.000000	0.485128	0.444983	367.768802
5496.000000	0.485649	0.459836	199.942667
5497.000000	0.496615	0.506752	314.512909
5498.000000	0.443718	0.430768	347.203495
5499.000000	0.499535	0.502170	189.504237
5500.000000	0.413742	0.408436	336.008359
