

# 
# Scan parameters: power 16.000000 dBm, bandwidth 1.500000 Hz
# Frequency [MHz]	avg noise	std noise	peak value
3850.000000	26.562623	25.023038	413.630509
3851.000000	27.118405	25.358078	382.625883
3852.000000	25.153100	22.204233	270.562865
3853.000000	25.519044	26.718972	439.431241
3854.000000	24.927663	27.104051	231.243019
3855.000000	24.364658	22.270905	135.870029
3856.000000	27.107179	26.947353	271.848461
3857.000000	25.503992	26.755641	302.989065
3858.000000	23.194350	21.533233	367.467644
3859.000000	21.671970	19.926249	408.676910
3860.000000	19.771738	19.359001	475.284068
3861.000000	21.788197	21.501383	549.639399
3862.000000	23.878553	25.431547	441.139985
3863.000000	20.128837	19.942391	269.041719
3864.000000	19.802472	18.319406	572.768648
3865.000000	20.227030	19.935200	295.389936
3866.000000	21.763337	20.655662	184.793205
3867.000000	21.259685	21.581178	250.702211
3868.000000	22.580601	20.710755	216.839065
3869.000000	19.721426	20.186997	148.349523
3870.000000	21.057656	20.676442	325.541910
3871.000000	16.227830	15.850708	111.884674
3872.000000	19.756079	20.480259	380.302310
3873.000000	17.659612	21.026782	131.454933
3874.000000	20.414416	21.906872	220.121682
3875.000000	19.156314	18.596116	94.338073
3876.000000	21.256315	20.098251	200.645041
3877.000000	19.847463	20.456932	149.497727
3878.000000	19.012857	18.704301	219.492712
3879.000000	18.391513	19.547570	160.905845
3880.000000	20.199537	19.533428	111.471678
3881.000000	17.555522	17.147778	183.475513
3882.000000	16.286504	14.075975	70.484362
3883.000000	19.035274	18.470577	75.485142
3884.000000	17.240644	15.990450	84.878300
3885.000000	15.840309	15.586124	60.227650
3886.000000	17.562338	17.420365	75.498742
3887.000000	17.862609	17.541287	77.397994
3888.000000	16.043215	16.252109	93.279026
3889.000000	17.454999	16.644768	61.555137
3890.000000	14.654491	13.717951	70.683994
3891.000000	14.791035	15.281480	89.332271
3892.000000	16.937201	17.907120	83.855144
3893.000000	16.087853	17.390010	69.040121
3894.000000	17.453079	19.636867	66.082427
3895.000000	14.207918	15.006645	66.881718
3896.000000	15.216228	13.443816	58.116324
3897.000000	17.272771	15.530627	66.617270
3898.000000	15.519494	14.531319	73.495004
3899.000000	15.975175	15.075802	98.692892
3900.000000	14.547550	14.761384	78.833428
3901.000000	15.816032	15.628383	84.973097
3902.000000	14.880391	13.952161	77.072888
3903.000000	15.153086	16.556128	61.682188
3904.000000	14.328128	15.045556	78.559697
3905.000000	15.170499	14.072614	68.977510
3906.000000	13.204600	12.656766	61.875247
3907.000000	15.635906	17.141328	57.488561
3908.000000	14.939411	13.495787	87.876549
3909.000000	14.122274	13.528352	92.331427
3910.000000	14.627905	16.487678	62.726132
3911.000000	13.366860	12.054556	98.541207
3912.000000	14.275865	14.191186	44.471076
3913.000000	16.117739	16.677369	84.703243
3914.000000	15.211036	15.527695	90.451988
3915.000000	15.368682	13.233862	65.485529
3916.000000	14.574382	13.562365	103.607691
3917.000000	13.413459	12.940198	103.281488
3918.000000	13.378146	13.504209	72.132370
3919.000000	13.462732	13.120544	105.034713
3920.000000	16.661380	14.975754	56.285717
3921.000000	16.368620	16.865755	43.660854
3922.000000	13.522513	11.688721	147.816513
3923.000000	14.878734	13.131649	46.305400
3924.000000	14.529994	15.887864	49.075085
3925.000000	13.887861	13.496215	65.806691
3926.000000	13.955226	15.050841	121.274205
3927.000000	14.693066	15.263662	65.161958
3928.000000	12.406814	12.783988	141.019506
3929.000000	14.449815	13.070439	121.739563
3930.000000	14.277807	12.801473	126.963171
3931.000000	13.383364	13.714197	206.573485
3932.000000	13.676418	14.814748	143.550791
3933.000000	12.918457	12.307085	172.755349
3934.000000	14.521039	14.366344	288.118596
3935.000000	11.293067	11.471749	111.436644
3936.000000	11.900585	12.408530	148.038740
3937.000000	11.789703	12.212935	214.951194
3938.000000	11.316756	11.604123	140.523776
3939.000000	12.797304	11.943085	276.110268
3940.000000	11.748353	12.064749	266.024617
3941.000000	11.858169	11.397325	68.757797
3942.000000	11.760133	10.919364	338.456967
3943.000000	11.553991	13.085514	194.512780
3944.000000	10.406577	10.810122	203.865682
3945.000000	10.728342	10.174083	418.687696
3946.000000	10.804690	11.351542	168.486096
3947.000000	11.429724	11.323861	366.221207
3948.000000	13.089580	14.637599	334.367474
3949.000000	11.097265	9.616646	287.839945
3950.000000	11.807030	11.516536	331.594301
3951.000000	12.478695	13.106731	391.126829
3952.000000	11.798671	13.050423	263.176223
3953.000000	11.044464	11.602397	517.460984
3954.000000	9.527984	9.103129	394.074995
3955.000000	11.263148	9.769946	283.448201
3956.000000	10.906562	12.423266	436.497245
3957.000000	10.942385	10.001059	277.134109
3958.000000	11.161067	13.259742	432.027029
3959.000000	11.715417	12.048963	596.164515
3960.000000	12.534275	13.064146	320.481174
3961.000000	12.465355	13.454051	473.233521
3962.000000	11.215656	10.669354	745.396293
3963.000000	12.048578	11.942882	351.488467
3964.000000	10.873290	10.344151	977.948294
3965.000000	11.667154	11.210386	512.844801
3966.000000	10.991060	11.040644	516.464089
3967.000000	10.826273	10.519677	858.297775
3968.000000	12.030163	11.599901	406.249732
3969.000000	11.078583	12.659425	670.576967
3970.000000	10.572945	10.332334	725.021741
3971.000000	11.593845	11.316869	398.967004
3972.000000	9.775470	10.553174	645.333468
3973.000000	11.271900	11.322238	626.943926
3974.000000	10.036049	9.145648	314.989968
3975.000000	12.528986	13.820136	785.482955
3976.000000	10.249759	9.492905	488.658805
3977.000000	9.814126	9.897875	406.491951
3978.000000	10.959970	9.675491	659.845876
3979.000000	11.020740	10.510861	404.304254
3980.000000	10.575194	10.602207	314.872504
3981.000000	8.347063	8.118577	528.264049
3982.000000	8.939121	9.651498	370.655589
3983.000000	9.489270	9.508795	648.066293
3984.000000	10.195451	9.608073	762.176606
3985.000000	11.304394	10.759683	285.795415
3986.000000	10.000208	8.869343	494.737152
3987.000000	10.504584	9.314786	867.409728
3988.000000	9.534032	10.272200	449.522249
3989.000000	10.317187	9.421982	617.626833
3990.000000	10.711539	11.558501	898.095201
3991.000000	9.124788	9.840416	428.239909
3992.000000	10.949003	10.071669	858.139183
3993.000000	9.823508	8.264035	507.817689
3994.000000	9.839940	9.690244	461.975954
3995.000000	8.544184	8.168593	853.782961
3996.000000	11.138193	10.167454	475.734447
3997.000000	9.798917	9.901176	366.396036
3998.000000	9.432563	10.136613	584.683272
3999.000000	9.441860	9.002658	304.757879
4000.000000	9.540191	8.799805	419.089160
4001.000000	10.354324	10.422065	757.478765
4002.000000	10.115183	11.838339	362.418205
4003.000000	9.377428	10.097478	598.100926
4004.000000	9.988696	9.807126	457.788979
4005.000000	10.532754	9.639189	340.953841
4006.000000	9.280532	9.953523	876.028632
4007.000000	10.884899	10.479707	428.748347
4008.000000	10.122115	10.244721	602.422408
4009.000000	10.121221	9.490388	309.984256
4010.000000	12.189030	11.331681	218.820572
4011.000000	9.499477	9.861679	431.847399
4012.000000	9.753373	9.726493	414.785208
4013.000000	9.884441	10.780629	138.927372
4014.000000	9.371717	8.651727	284.590850
4015.000000	9.511509	9.835305	218.245347
4016.000000	10.879936	10.232254	69.886083
4017.000000	9.428993	8.997273	175.447302
4018.000000	9.644456	9.731162	163.213750
4019.000000	11.732451	10.505238	235.759933
4020.000000	10.768266	10.186453	100.236781
4021.000000	10.178127	9.546528	81.722402
4022.000000	11.756424	10.127236	144.830252
4023.000000	11.618640	12.811671	162.118216
4024.000000	10.902167	11.352457	139.588901
4025.000000	11.173909	11.507596	155.783755
4026.000000	10.957705	10.642465	205.589118
4027.000000	10.294494	9.441286	312.695268
4028.000000	11.785146	12.869980	193.465435
4029.000000	10.185726	10.264526	181.663030
4030.000000	10.271777	9.690678	341.057742
4031.000000	11.308075	11.392485	395.709081
4032.000000	10.534600	10.684122	293.930261
4033.000000	11.466498	12.271537	240.070204
4034.000000	10.369062	10.284483	282.468282
4035.000000	9.767804	9.403604	238.497048
4036.000000	11.144384	11.330079	355.227910
4037.000000	11.489617	11.708132	214.316487
4038.000000	10.092964	8.925472	154.067865
4039.000000	10.915438	10.598793	264.719518
4040.000000	11.206756	10.749634	221.525070
4041.000000	10.801076	9.379680	319.360523
4042.000000	11.135409	10.388969	314.268898
4043.000000	11.868281	11.522011	390.932851
4044.000000	11.155728	10.929396	506.319361
4045.000000	12.237297	12.413857	531.043537
4046.000000	10.224700	10.518227	278.223258
4047.000000	10.657234	11.266441	273.916115
4048.000000	10.562694	10.022368	430.401141
4049.000000	11.568698	11.699939	255.270964
4050.000000	11.630261	10.999831	522.338714
4051.000000	12.062736	12.076653	504.156172
4052.000000	9.824392	9.828531	301.954194
4053.000000	10.664256	10.200348	455.598685
4054.000000	10.526260	9.771412	429.944876
4055.000000	10.208574	10.539423	305.081034
4056.000000	10.157148	12.010968	842.189559
4057.000000	9.739956	9.373739	414.258472
4058.000000	11.435184	10.854700	792.656002
4059.000000	12.093402	11.087242	353.302887
4060.000000	11.452806	11.119974	234.914433
4061.000000	10.837993	9.609021	354.525739
4062.000000	10.975938	10.982714	443.114705
4063.000000	11.712614	10.918882	164.483804
4064.000000	10.450887	10.026352	319.181530
4065.000000	8.945229	8.479999	278.842321
4066.000000	10.531743	10.771800	142.600325
4067.000000	10.175997	10.169287	311.451571
4068.000000	11.150247	11.266576	137.740118
4069.000000	10.107862	11.403585	78.563532
4070.000000	10.689417	8.815928	117.353658
4071.000000	11.206788	10.325804	42.037253
4072.000000	11.295949	11.222594	228.705575
4073.000000	10.600226	11.320616	101.039943
4074.000000	10.131277	9.858684	114.597616
4075.000000	11.099733	10.779565	206.388526
4076.000000	9.891168	10.427161	184.300605
4077.000000	10.729134	10.119680	82.102689
4078.000000	9.834446	10.204126	183.370760
4079.000000	9.394282	9.788501	90.349853
4080.000000	10.977237	10.524686	157.826712
4081.000000	10.262522	10.396255	165.859167
4082.000000	10.293645	10.512609	229.750745
4083.000000	10.082348	10.421981	139.671021
4084.000000	10.026172	10.670316	172.941870
4085.000000	10.319533	10.950113	213.340199
4086.000000	10.112977	9.141298	182.347994
4087.000000	9.697840	9.026668	180.080141
4088.000000	10.532445	10.917681	88.431192
4089.000000	9.324831	10.195782	263.044446
4090.000000	11.224319	9.635625	186.704636
4091.000000	12.248626	11.963187	259.459835
4092.000000	9.845311	8.468522	335.385380
4093.000000	11.775613	10.678417	155.023492
4094.000000	11.752377	10.700249	82.364844
4095.000000	11.317021	11.937586	242.742486
4096.000000	11.329255	11.530518	160.349991
4097.000000	10.379916	10.661096	412.511440
4098.000000	10.855728	9.345598	210.762050
4099.000000	10.885121	9.955555	213.602710
4100.000000	10.552840	10.719390	339.735720
4101.000000	11.593595	12.273751	231.739794
4102.000000	10.816517	9.772200	140.423298
4103.000000	11.265691	10.926258	232.032915
4104.000000	9.060370	10.897231	297.446731
4105.000000	10.826324	9.909209	158.092892
4106.000000	12.898787	12.876474	179.580769
4107.000000	12.531771	12.796318	195.510791
4108.000000	11.618699	11.364872	151.179689
4109.000000	10.985401	10.375369	132.423972
4110.000000	10.856490	10.724028	110.680997
4111.000000	12.106931	11.354617	225.363598
4112.000000	11.795581	11.558911	149.390889
4113.000000	10.313333	8.941510	92.574333
4114.000000	10.824654	10.837610	120.021851
4115.000000	9.786502	9.907559	63.276133
4116.000000	10.911110	10.941721	126.520618
4117.000000	11.623433	11.869852	155.764636
4118.000000	10.362962	11.163929	91.914531
4119.000000	10.806408	10.537340	106.663626
4120.000000	10.512435	11.519066	207.788136
4121.000000	11.027248	11.438413	87.714169
4122.000000	11.731375	12.637214	94.128268
4123.000000	9.840942	9.452876	125.554651
4124.000000	9.403510	9.810114	61.556870
4125.000000	10.011597	9.196553	52.288933
4126.000000	13.203374	13.488659	84.675561
4127.000000	11.167072	11.406033	62.091253
4128.000000	10.738056	9.999694	94.420099
4129.000000	9.502195	9.046055	93.806014
4130.000000	10.334480	8.619455	59.908524
4131.000000	10.124066	10.121679	87.692783
4132.000000	10.697370	11.273845	55.388323
4133.000000	11.370597	12.698498	39.015943
4134.000000	11.563896	11.605106	73.997816
4135.000000	11.038453	10.606798	39.991443
4136.000000	12.090560	11.494918	48.161753
4137.000000	12.661410	12.146262	90.168751
4138.000000	10.966960	10.728715	53.044128
4139.000000	10.446620	11.069247	76.309042
4140.000000	11.670167	11.490260	46.947275
4141.000000	12.056323	13.624916	69.181884
4142.000000	11.181526	11.099113	73.018599
4143.000000	9.730928	9.408384	96.592305
4144.000000	10.329091	9.949325	62.321973
4145.000000	12.354516	12.327228	50.508355
4146.000000	11.456826	11.713872	47.250578
4147.000000	11.592539	11.262467	60.563190
4148.000000	11.223867	10.708189	59.589102
4149.000000	13.047530	12.189164	71.710593
4150.000000	10.043473	10.936013	50.397074
4151.000000	10.385244	10.416358	48.631779
4152.000000	10.860235	10.446162	51.258345
4153.000000	12.639753	13.104197	52.326640
4154.000000	11.065997	10.516077	51.374476
4155.000000	11.557126	11.499784	40.465494
4156.000000	10.556231	10.018081	43.660490
4157.000000	10.151421	10.284372	80.786888
4158.000000	11.389928	9.486369	40.942427
4159.000000	11.439508	11.204684	98.172728
4160.000000	10.723072	10.586445	89.215614
4161.000000	10.401516	10.456388	79.191446
4162.000000	10.988309	11.876869	168.121367
4163.000000	11.365801	12.315150	115.680129
4164.000000	10.331908	12.007918	80.179096
4165.000000	11.784087	11.669936	180.725151
4166.000000	11.230511	11.448010	49.530145
4167.000000	11.291536	11.494312	76.890581
4168.000000	9.401844	8.378546	50.450426
4169.000000	11.179687	10.006388	118.203716
4170.000000	10.588151	12.425685	100.547995
4171.000000	10.924700	12.686491	91.184904
4172.000000	10.151359	9.878408	53.137895
4173.000000	10.605774	9.572360	71.805342
4174.000000	8.822294	8.953099	44.789435
4175.000000	8.897310	8.294083	169.180294
4176.000000	8.786311	8.910734	82.000675
4177.000000	9.706645	9.654404	66.272296
4178.000000	9.308312	9.846337	65.152302
4179.000000	8.624468	9.354389	72.635887
4180.000000	9.277529	9.080686	56.616140
4181.000000	9.274578	8.994450	40.079752
4182.000000	8.842335	8.395421	64.832088
4183.000000	7.895065	7.887308	107.315006
4184.000000	8.278945	7.701142	45.666962
4185.000000	10.143666	10.184868	49.921966
4186.000000	9.525774	10.525263	71.255187
4187.000000	8.043194	8.778858	90.587677
4188.000000	8.585617	8.185877	98.962998
4189.000000	8.515455	9.554579	46.912541
4190.000000	7.893607	7.315465	126.797350
4191.000000	8.004406	7.818192	63.869422
4192.000000	7.958213	7.206021	75.498127
4193.000000	8.321124	8.822825	67.329076
4194.000000	7.276249	7.782159	34.544545
4195.000000	6.162598	5.842922	62.628792
4196.000000	6.899524	6.129100	29.811817
4197.000000	6.891924	6.792725	62.881889
4198.000000	7.686234	7.470976	36.855002
4199.000000	7.167008	7.759355	60.993052
4200.000000	7.120863	6.485284	77.157165
4201.000000	6.259968	5.423550	90.762599
4202.000000	5.479155	5.194606	84.559971
4203.000000	6.231106	6.372886	94.001830
4204.000000	6.443701	6.135498	30.331300
4205.000000	5.078785	5.363930	73.138039
4206.000000	5.432656	6.183995	108.065698
4207.000000	5.856766	5.616410	62.545577
4208.000000	5.305845	5.547234	127.515783
4209.000000	5.241424	5.258296	70.346770
4210.000000	5.535659	5.737509	49.201548
4211.000000	5.096094	5.296129	41.714921
4212.000000	4.615515	4.167773	107.210726
4213.000000	4.884353	5.055901	33.029291
4214.000000	4.810103	5.209821	51.851533
4215.000000	4.612905	5.052360	49.596853
4216.000000	4.990629	5.312835	41.154420
4217.000000	4.956217	4.914418	44.748491
4218.000000	4.971273	4.803896	40.271526
4219.000000	5.089142	4.755010	44.559290
4220.000000	5.332846	5.116438	27.184497
4221.000000	4.660259	4.631155	18.577317
4222.000000	4.814777	4.837125	32.583233
4223.000000	4.999945	4.293487	33.005604
4224.000000	4.416091	4.183439	17.722394
4225.000000	4.492344	4.691571	64.038515
4226.000000	4.354839	4.530732	28.139703
4227.000000	4.796620	5.363032	16.461215
4228.000000	4.221717	4.136475	27.824979
4229.000000	4.919770	5.567736	26.260065
4230.000000	4.139654	4.102461	24.285390
4231.000000	4.426883	4.394620	21.260913
4232.000000	4.876409	4.597094	31.450907
4233.000000	4.276123	4.534960	58.183465
4234.000000	4.209041	4.415563	25.102688
4235.000000	3.990915	4.112487	18.119098
4236.000000	4.202719	4.215774	21.296884
4237.000000	4.089819	3.943162	23.868741
4238.000000	4.049402	4.395302	32.493312
4239.000000	3.803571	3.606943	18.748170
4240.000000	3.713530	4.125137	19.070194
4241.000000	4.227229	4.283534	23.239499
4242.000000	3.811985	3.686502	20.809101
4243.000000	4.009696	4.075910	21.824170
4244.000000	3.656255	3.932662	22.019947
4245.000000	3.861271	3.727078	36.715937
4246.000000	3.531978	3.321522	15.647536
4247.000000	3.493094	3.333261	17.916570
4248.000000	3.689729	3.626018	24.061067
4249.000000	3.396360	3.210085	23.838078
4250.000000	3.725967	3.958480	23.030297
4251.000000	3.675402	3.859034	18.839759
4252.000000	3.252630	3.386923	9.232443
4253.000000	3.465177	3.451592	16.739493
4254.000000	3.314203	3.354148	21.487957
4255.000000	3.768343	3.567043	18.569312
4256.000000	3.863802	3.605993	13.760018
4257.000000	3.637639	3.458855	29.313605
4258.000000	3.962484	4.038645	19.798035
4259.000000	3.951791	4.283244	16.089382
4260.000000	3.941163	3.956020	9.858857
4261.000000	3.386375	3.521899	21.099513
4262.000000	4.090941	3.978327	14.016581
4263.000000	3.518457	3.506469	18.090360
4264.000000	3.866428	3.815720	15.105316
4265.000000	3.433806	3.369578	12.840970
4266.000000	4.018583	3.964422	20.157686
