

# 3dB more power
# Scan parameters: power 19.000000 dBm, bandwidth 1.500000 Hz
# Frequency [MHz]	avg noise	std noise	peak value
3850.000000	17.335031	13.168512	892.721612
3851.000000	6.861049	6.602942	1132.930574
3852.000000	6.914833	6.935585	525.769617
3853.000000	6.197422	6.658103	1038.015228
3854.000000	5.911585	5.652710	816.057606
3855.000000	6.037196	5.203163	579.454328
3856.000000	5.781632	5.827077	940.717496
3857.000000	6.730965	6.273077	807.358580
3858.000000	5.460207	5.854933	894.058509
3859.000000	6.019029	6.221764	1063.091013
3860.000000	5.772122	5.185409	482.386816
3861.000000	4.679590	4.695985	840.496768
3862.000000	5.997355	6.034549	912.344026
3863.000000	5.544591	5.558287	534.005134
3864.000000	5.262750	4.999966	815.460873
3865.000000	5.600676	5.916074	792.641238
3866.000000	5.415378	6.314647	436.633625
3867.000000	5.400434	5.005408	793.711265
3868.000000	5.063193	4.634936	464.386438
3869.000000	5.876854	5.885297	406.656360
3870.000000	5.656438	5.712131	583.571951
3871.000000	5.903517	6.382783	354.926948
3872.000000	6.278665	6.546473	593.254571
3873.000000	5.636824	5.493872	542.910118
3874.000000	6.158388	6.065147	268.862781
3875.000000	6.164308	6.385514	438.900301
3876.000000	6.590300	6.780096	401.977787
3877.000000	5.374886	5.325134	219.985840
3878.000000	5.983042	5.367382	334.673171
3879.000000	5.177483	6.258415	279.633649
3880.000000	6.027888	5.991037	164.359857
3881.000000	6.385372	6.130428	223.961020
3882.000000	6.230424	6.200171	68.826430
3883.000000	6.006872	5.676135	84.669344
3884.000000	5.923111	5.901314	112.045553
3885.000000	5.883944	5.950402	40.625336
3886.000000	5.293951	6.072795	48.949078
3887.000000	5.539233	5.614958	79.752578
3888.000000	6.332948	6.182389	30.149727
3889.000000	6.851963	6.452726	74.771083
3890.000000	5.512472	5.687048	36.847424
3891.000000	6.057339	6.155095	37.040045
3892.000000	6.277880	6.071211	41.845044
3893.000000	6.119025	6.131658	37.452096
3894.000000	5.750756	6.248048	32.298952
3895.000000	6.405594	7.294908	39.633208
3896.000000	6.242464	5.900685	35.005951
3897.000000	5.838776	5.492726	43.293910
3898.000000	5.775728	5.431932	22.571947
3899.000000	5.920260	5.743429	47.908752
3900.000000	6.287745	6.650488	21.877193
3901.000000	6.499810	6.253788	22.445196
3902.000000	6.459149	5.735942	33.942390
3903.000000	5.693007	5.401722	23.197251
3904.000000	5.764545	5.930983	27.177223
3905.000000	6.469506	7.165995	34.006883
3906.000000	6.974056	6.255957	58.032019
3907.000000	7.056446	7.211929	39.629636
3908.000000	7.017006	8.602606	60.406625
3909.000000	6.947553	6.795889	41.845799
3910.000000	6.381666	6.741568	37.793029
3911.000000	6.415801	6.804207	119.435496
3912.000000	6.740455	6.484502	51.199483
3913.000000	6.822725	7.249361	108.584595
3914.000000	7.300247	7.509032	125.021640
3915.000000	6.999666	6.801184	64.579828
3916.000000	6.375491	5.936280	56.540029
3917.000000	6.026481	6.105296	68.596181
3918.000000	6.459295	6.260012	58.737996
3919.000000	7.728791	7.655072	42.597276
3920.000000	6.504297	6.070980	51.744870
3921.000000	7.669884	7.468172	40.297598
3922.000000	6.067351	5.613195	37.802920
3923.000000	6.585627	7.138307	79.120991
3924.000000	7.513348	8.547151	54.584231
3925.000000	6.570172	6.789751	153.083732
3926.000000	6.272506	5.948360	200.908075
3927.000000	6.435035	5.893178	186.075409
3928.000000	6.756269	6.355380	231.839850
3929.000000	6.325735	6.221278	228.671727
3930.000000	7.411199	7.996283	226.404321
3931.000000	6.218242	5.935147	318.562342
3932.000000	7.327639	6.867969	287.162635
3933.000000	7.201734	7.595766	321.196567
3934.000000	7.007616	5.906287	360.519973
3935.000000	7.330558	6.767796	272.312361
3936.000000	6.654174	6.327705	385.171827
3937.000000	6.482730	6.415480	309.327766
3938.000000	6.903458	6.921431	220.981364
3939.000000	6.973805	6.762477	498.572678
3940.000000	6.876437	7.246709	435.518112
3941.000000	6.578204	5.713122	296.506622
3942.000000	7.859908	7.731503	599.101747
3943.000000	8.034155	7.803381	457.412996
3944.000000	8.138162	8.290396	437.819058
3945.000000	7.914991	7.716258	682.167801
3946.000000	6.781145	6.253569	316.735533
3947.000000	7.044443	7.158752	574.443204
3948.000000	7.351173	7.320433	680.050640
3949.000000	7.188682	8.911735	379.122893
3950.000000	7.154632	6.442929	654.461919
3951.000000	7.018491	6.516291	555.558288
3952.000000	7.022841	7.227247	372.452089
3953.000000	8.624622	8.368780	619.743780
3954.000000	8.656551	8.222470	561.238445
3955.000000	7.040532	6.446890	365.853356
3956.000000	7.623971	7.259779	1090.444882
3957.000000	7.864852	7.187582	568.369242
3958.000000	7.489519	8.136995	873.392345
3959.000000	7.373778	7.741493	1022.115779
3960.000000	7.935554	8.474117	438.922444
3961.000000	6.906343	6.154728	976.461327
3962.000000	7.302919	6.622611	1223.316944
3963.000000	7.385366	6.979423	591.809589
3964.000000	7.484842	7.833305	1155.312641
3965.000000	7.968242	8.033058	1071.972318
3966.000000	8.079379	8.050282	660.073311
3967.000000	6.999353	7.029363	1431.452867
3968.000000	7.189598	7.149765	1003.645100
3969.000000	7.414272	6.863837	835.560771
3970.000000	6.770091	7.835718	1467.160616
3971.000000	7.544841	6.734384	717.342387
3972.000000	7.279744	7.207355	1001.908498
3973.000000	8.573967	8.686977	1037.025644
3974.000000	6.714267	5.900517	555.175455
3975.000000	7.121100	7.221325	934.825566
3976.000000	6.322118	5.517101	1134.483219
3977.000000	6.467590	5.922507	464.222494
3978.000000	6.625290	7.005275	883.946468
3979.000000	7.352275	7.541416	678.997264
3980.000000	7.346912	6.750844	703.077912
3981.000000	6.618476	6.275009	1242.400064
3982.000000	7.481253	7.057636	854.536354
3983.000000	7.325074	8.234253	936.072358
3984.000000	6.439471	7.089695	1253.383807
3985.000000	7.156012	6.953612	738.168651
3986.000000	6.712622	6.880353	1042.584712
3987.000000	6.353140	6.144939	1278.701426
3988.000000	6.886272	7.478769	654.445706
3989.000000	6.454898	5.737545	1243.453868
3990.000000	7.226781	7.422700	1523.027256
3991.000000	7.178315	7.054382	1065.776865
3992.000000	6.596330	6.065759	1657.699677
3993.000000	7.200052	6.794811	1076.083292
3994.000000	7.427398	7.787117	1113.961796
3995.000000	7.329444	6.413387	1505.047016
3996.000000	6.361379	6.065353	844.341128
3997.000000	7.757520	7.772885	1048.572179
3998.000000	6.215979	5.784104	1036.306162
3999.000000	5.988813	5.589987	432.452184
4000.000000	7.015301	7.129769	1124.557052
4001.000000	7.347871	6.626841	1221.013668
4002.000000	6.354710	6.291964	598.685569
4003.000000	7.729712	8.609410	1272.904671
4004.000000	6.663835	6.640062	946.346772
4005.000000	6.850333	6.576599	873.743464
4006.000000	5.981023	5.786118	1117.899346
4007.000000	7.257453	7.261278	706.806601
4008.000000	6.791811	7.012453	942.736471
4009.000000	6.379694	6.679291	818.284297
4010.000000	7.027261	6.245475	405.458656
4011.000000	7.582776	7.268029	484.519093
4012.000000	6.048624	5.742694	495.156304
4013.000000	7.349427	6.682090	209.095490
4014.000000	6.759676	7.318365	379.510553
4015.000000	6.934265	7.366086	409.976675
4016.000000	5.905071	5.779019	273.724888
4017.000000	5.577661	5.741775	461.379921
4018.000000	6.547091	6.615270	188.574203
4019.000000	7.189686	7.450779	250.195376
4020.000000	6.695260	6.727673	400.281637
4021.000000	6.807717	6.674066	216.659186
4022.000000	6.255267	6.159111	285.209141
4023.000000	6.255428	5.821653	353.085652
4024.000000	6.433861	6.517359	191.693370
4025.000000	5.652180	5.140212	471.658474
4026.000000	6.855708	6.424942	343.849786
4027.000000	5.622870	6.056737	292.555694
4028.000000	5.750279	5.208889	641.718462
4029.000000	5.428176	5.365677	552.057893
4030.000000	5.888199	6.001760	474.196885
4031.000000	6.385241	6.643647	798.162495
4032.000000	5.539212	4.983135	507.248921
4033.000000	6.209585	6.491853	603.726930
4034.000000	5.996710	6.021924	670.414202
4035.000000	6.650617	6.995250	364.960631
4036.000000	6.524643	7.104452	535.942166
4037.000000	6.851543	6.498306	519.853707
4038.000000	7.257058	7.171385	257.962700
4039.000000	6.398838	6.150837	530.837008
4040.000000	6.615394	6.485387	521.484003
4041.000000	6.347002	5.879682	367.086226
4042.000000	6.724547	6.943071	662.329840
4043.000000	6.141324	5.952033	541.196506
4044.000000	7.186080	7.632330	602.479657
4045.000000	6.819610	6.695269	811.848398
4046.000000	7.743379	7.785409	621.693090
4047.000000	7.428280	8.001392	882.048049
4048.000000	7.407932	8.150802	1115.545838
4049.000000	6.938780	7.378573	475.898562
4050.000000	6.794630	6.928208	1152.505301
4051.000000	7.191805	6.674716	1103.259849
4052.000000	8.469029	7.946920	606.020034
4053.000000	7.270019	7.102734	1110.566774
4054.000000	7.737535	7.450310	993.710508
4055.000000	7.484353	7.331681	791.977478
4056.000000	6.390457	6.494268	1309.180469
4057.000000	8.046648	8.041402	691.000796
4058.000000	8.274682	7.520232	709.864851
4059.000000	7.518551	7.245708	1129.307622
4060.000000	8.326456	8.504996	621.479922
4061.000000	8.209362	9.059468	672.433211
4062.000000	6.360843	5.638194	773.859621
4063.000000	7.580813	8.405093	315.823289
4064.000000	8.338011	9.593442	555.417906
4065.000000	9.433737	10.578829	453.438523
4066.000000	8.503051	8.511056	255.498212
4067.000000	7.642596	8.111982	351.661492
4068.000000	7.924831	8.594528	228.493791
4069.000000	8.775076	9.001313	203.705628
4070.000000	7.798025	7.213184	321.702150
4071.000000	7.810867	8.248259	125.797328
4072.000000	8.768278	8.836199	252.791504
4073.000000	8.720492	7.729210	305.583719
4074.000000	7.743707	6.888627	179.453692
4075.000000	8.165392	8.790834	245.704618
4076.000000	8.545489	8.324579	351.095320
4077.000000	9.548566	10.075396	243.451511
4078.000000	8.887563	7.414783	297.952269
4079.000000	8.814366	8.482771	345.119575
4080.000000	9.872845	8.941671	344.262649
4081.000000	9.861936	9.753661	322.212727
4082.000000	9.254200	9.259566	337.446437
4083.000000	9.512616	9.927453	381.804351
4084.000000	10.039177	10.411523	304.858951
4085.000000	10.778762	10.096240	319.174167
4086.000000	9.547136	9.540833	393.186034
4087.000000	10.157895	9.678673	395.981853
4088.000000	10.186063	9.955293	182.063760
4089.000000	10.527064	10.881363	511.158859
4090.000000	11.134036	11.975367	396.967488
4091.000000	10.657358	11.563847	206.019126
4092.000000	10.994103	10.469411	404.712078
4093.000000	11.352877	10.951680	316.642619
4094.000000	12.535553	10.808000	520.434991
4095.000000	11.700038	11.918352	614.563065
4096.000000	11.310360	11.911348	366.730576
4097.000000	10.313960	9.834129	430.776446
4098.000000	9.907978	11.484168	977.509357
4099.000000	10.365059	10.598018	209.092059
4100.000000	12.044276	12.301953	532.623296
4101.000000	11.514571	12.083756	504.765677
4102.000000	10.720671	10.619360	299.309317
4103.000000	11.614456	10.179336	541.035956
4104.000000	11.641894	11.445943	237.431020
4105.000000	9.151429	8.949651	327.227248
4106.000000	11.932998	11.973547	612.137951
4107.000000	11.443784	11.644900	327.519935
4108.000000	11.842965	11.952272	453.819618
4109.000000	11.082170	11.896146	348.901495
4110.000000	11.518423	10.227605	199.043244
4111.000000	11.527121	11.989058	311.482097
4112.000000	12.639071	11.970615	210.452634
4113.000000	11.886426	12.906536	133.564004
4114.000000	10.926334	10.979817	385.448076
4115.000000	10.622958	11.210221	193.241392
4116.000000	11.205664	13.007333	221.717462
4117.000000	12.682038	12.482213	271.516792
4118.000000	12.125142	11.576966	155.119522
4119.000000	11.177896	10.046141	147.117939
4120.000000	10.460237	10.461897	202.596805
4121.000000	11.328618	9.956469	199.831420
4122.000000	10.460831	11.062833	207.720447
4123.000000	11.607767	12.154540	108.359508
4124.000000	10.953628	10.802605	167.539261
4125.000000	11.101018	10.254363	196.461533
4126.000000	11.375657	10.629180	131.783992
4127.000000	11.644083	12.367776	66.574063
4128.000000	10.771257	10.084721	137.787624
4129.000000	11.496708	11.518338	212.897176
4130.000000	10.783226	10.595716	42.392781
4131.000000	10.416799	10.664983	56.682673
4132.000000	11.937554	11.847700	45.797088
4133.000000	10.759238	11.931134	31.181876
4134.000000	10.281550	10.691906	47.526533
4135.000000	10.522519	9.782888	44.182378
4136.000000	10.884368	11.219635	40.036365
4137.000000	10.637708	10.494728	73.559083
4138.000000	10.247012	9.051158	65.514059
4139.000000	10.549673	10.358279	46.991513
4140.000000	9.598606	10.468351	53.514852
4141.000000	10.170204	10.226182	25.105985
4142.000000	9.659651	9.522104	49.629851
4143.000000	9.487868	10.030776	58.551549
4144.000000	9.246921	9.501367	49.342931
4145.000000	9.896933	9.250450	41.977659
4146.000000	9.434263	9.314848	41.578285
4147.000000	9.360573	9.760278	45.673671
4148.000000	8.090384	8.464398	76.635970
4149.000000	8.281602	8.415430	40.557796
4150.000000	8.583280	8.392138	53.486550
4151.000000	8.655460	9.131250	51.070604
4152.000000	8.410201	8.037459	43.163168
4153.000000	7.382580	8.096611	37.129090
4154.000000	8.170471	8.700576	27.346838
4155.000000	7.794434	7.549503	44.413428
4156.000000	8.416498	8.849296	37.486871
4157.000000	7.854858	7.467292	30.005548
4158.000000	9.000543	8.435272	41.373191
4159.000000	7.083470	7.328220	88.065066
4160.000000	6.706144	6.494549	92.496838
4161.000000	7.000366	6.838655	154.493152
4162.000000	7.346407	7.017225	123.873971
4163.000000	7.511928	6.583681	67.923321
4164.000000	6.900887	6.870106	157.181750
4165.000000	7.092541	6.544396	144.816380
4166.000000	5.716983	5.810924	116.789237
4167.000000	7.466006	7.251599	300.856174
4168.000000	6.571122	6.554282	158.208636
4169.000000	6.454943	6.042534	213.047100
4170.000000	5.731167	4.925061	273.704570
4171.000000	5.672242	5.235031	136.546248
4172.000000	6.420735	6.538087	145.839501
4173.000000	6.044517	6.714534	195.746726
4174.000000	5.178311	4.687040	175.480067
4175.000000	5.938901	6.198889	209.449713
4176.000000	5.708298	5.044227	197.362263
4177.000000	5.623267	5.055364	115.520491
4178.000000	5.088069	4.916835	206.842908
4179.000000	5.366622	5.091487	136.649510
4180.000000	5.627123	6.246488	143.064813
4181.000000	5.250648	5.722943	205.857756
4182.000000	5.175122	5.648239	124.796183
4183.000000	5.105361	4.412912	113.957053
4184.000000	4.540239	4.117104	201.221995
4185.000000	5.421292	5.696353	86.024814
4186.000000	4.119395	4.115145	222.784258
4187.000000	4.233412	4.612079	160.184252
4188.000000	4.773825	4.871023	89.364573
4189.000000	4.068051	4.080697	159.958523
4190.000000	3.850037	4.186241	196.176954
4191.000000	4.117640	4.145695	123.377720
4192.000000	3.519130	3.791038	140.676707
4193.000000	3.950056	3.747491	112.589627
4194.000000	3.746901	4.267638	131.306867
4195.000000	3.688167	3.826149	163.563296
4196.000000	3.411258	3.344050	105.051696
4197.000000	3.407481	3.403150	146.351804
4198.000000	3.297187	2.901277	154.884384
4199.000000	3.833780	3.918184	48.708518
4200.000000	3.365940	3.841117	119.851957
4201.000000	3.379081	3.307685	179.776598
4202.000000	3.334399	3.215960	61.533353
4203.000000	3.840102	3.745788	118.827654
4204.000000	3.625442	3.187000	190.691946
4205.000000	3.300951	3.222625	143.097447
4206.000000	2.910556	3.027149	182.306384
4207.000000	3.465183	3.807757	118.066695
4208.000000	3.061924	3.297062	209.706334
4209.000000	3.058327	3.344876	192.202378
4210.000000	3.119299	3.614062	83.556113
4211.000000	2.377646	2.647130	159.623635
4212.000000	3.367145	3.552425	133.345524
4213.000000	3.168463	3.026523	66.746840
4214.000000	3.421171	3.211901	159.121512
4215.000000	2.816714	3.039038	70.830009
4216.000000	3.199461	2.785947	62.854402
4217.000000	3.038709	3.132903	96.805703
4218.000000	3.241027	3.100846	93.768096
4219.000000	2.997126	3.309097	32.487554
4220.000000	3.013583	2.993949	169.923514
4221.000000	3.434772	3.327885	44.321893
4222.000000	2.877681	3.430046	111.923043
4223.000000	2.665288	2.443047	117.798439
4224.000000	2.944753	2.960871	48.899342
4225.000000	2.822094	2.803377	66.445407
4226.000000	3.139813	3.019293	76.747339
4227.000000	2.555736	2.724768	52.858979
4228.000000	2.745263	3.087500	75.712252
4229.000000	3.295060	3.512550	76.803726
4230.000000	3.007331	3.095345	19.169662
4231.000000	3.017660	3.238666	24.767242
4232.000000	2.660418	2.723441	31.208450
4233.000000	2.820608	2.788406	26.755157
4234.000000	2.983059	2.735479	22.040041
4235.000000	2.921424	3.009329	14.872846
4236.000000	2.829305	2.588095	36.604170
4237.000000	2.670718	2.903168	19.784379
4238.000000	2.851603	2.589332	21.627189
4239.000000	2.819677	3.002959	14.874893
4240.000000	2.732302	2.928038	28.034718
4241.000000	2.616158	2.613429	18.527690
4242.000000	2.887385	3.512956	16.813719
4243.000000	2.909960	2.998638	17.069793
4244.000000	3.096916	2.838785	19.926787
4245.000000	2.403397	2.253940	12.179708
4246.000000	2.704008	2.589087	17.338252
4247.000000	3.096563	3.012546	15.348223
4248.000000	2.606665	2.827008	14.230699
4249.000000	2.753868	2.645146	15.492909
4250.000000	2.602560	2.727365	30.359696
4251.000000	2.740839	2.816546	18.555101
