# Magnets removed

# Scan parameters: power 16.000000 dBm, bandwidth 1.500000 Hz
# Frequency [MHz]	avg noise	std noise	peak value
3850.000000	1.766671	1.831071	706.283685
3851.000000	1.972017	1.998259	632.623766
3852.000000	1.993378	2.160715	356.722935
3853.000000	1.805505	1.750903	660.128965
3854.000000	1.747803	1.697796	492.343162
3855.000000	2.025228	1.878633	435.126113
3856.000000	2.103083	2.193282	574.339659
3857.000000	2.086874	2.209772	400.288702
3858.000000	2.049799	1.871611	515.336808
3859.000000	1.956765	2.030897	603.197474
3860.000000	2.059866	1.965850	304.441448
3861.000000	2.082335	1.878823	508.014481
3862.000000	1.932327	2.362210	726.688049
3863.000000	2.131382	1.951307	377.029457
3864.000000	2.326941	2.163078	627.307880
3865.000000	2.161312	2.131521	446.776971
3866.000000	2.341492	2.581392	295.823817
3867.000000	2.187511	2.564022	508.827861
3868.000000	2.226118	2.123367	299.946389
3869.000000	2.463434	2.362506	343.432420
3870.000000	2.225617	2.168770	324.847437
3871.000000	2.692417	2.307549	248.487460
3872.000000	2.188842	2.551939	368.763057
3873.000000	2.671703	2.468634	302.685424
3874.000000	2.635606	2.438861	153.315134
3875.000000	2.388073	2.666567	251.757871
3876.000000	2.715414	2.563921	173.528408
3877.000000	2.198278	2.140980	166.501345
3878.000000	2.995298	2.968173	243.840480
3879.000000	2.942791	2.947464	159.316083
3880.000000	2.864532	2.835786	187.367419
3881.000000	2.967371	3.011929	239.680808
3882.000000	2.648281	2.622399	85.441553
3883.000000	2.961146	3.003111	99.046176
3884.000000	2.630417	2.518705	150.415192
3885.000000	2.878918	2.747007	109.163872
3886.000000	2.862779	2.819166	118.881185
3887.000000	2.881530	3.172945	156.077700
3888.000000	3.243042	3.181616	42.472697
3889.000000	3.680321	3.462858	110.007125
3890.000000	3.255298	3.318665	81.102121
3891.000000	3.438462	3.459629	32.364955
3892.000000	3.204005	3.096909	151.267029
3893.000000	3.527560	3.173051	71.900287
3894.000000	3.694296	3.650827	68.628954
3895.000000	3.739037	4.199676	59.401103
3896.000000	3.941676	3.741401	58.795894
3897.000000	3.553953	3.364276	77.907718
3898.000000	3.832073	3.491311	103.722598
3899.000000	3.965416	4.157315	47.109764
3900.000000	4.517548	4.540973	68.067006
3901.000000	4.069781	4.033286	38.227650
3902.000000	4.307615	4.624885	36.196633
3903.000000	4.786275	4.578698	23.854697
3904.000000	4.283749	3.898680	22.857992
3905.000000	4.767939	4.795370	20.431484
3906.000000	4.694905	4.288958	28.918853
3907.000000	5.243811	5.824196	19.573456
3908.000000	5.049433	5.168824	45.434545
3909.000000	5.384928	5.310305	65.350017
3910.000000	4.776329	4.751655	17.265193
3911.000000	5.433192	5.043455	44.803381
3912.000000	5.003085	4.881874	70.517029
3913.000000	5.226495	5.671743	36.303860
3914.000000	5.708057	5.034948	72.111217
3915.000000	5.227890	5.405945	47.524249
3916.000000	5.157585	5.056810	80.397126
3917.000000	5.638290	5.527370	65.055390
3918.000000	5.703410	5.789753	117.121618
3919.000000	5.468356	5.212327	60.931889
3920.000000	6.175406	5.842451	81.964955
3921.000000	5.555818	5.717370	30.621446
3922.000000	6.422716	6.214962	26.436825
3923.000000	6.679322	5.954802	25.069882
3924.000000	6.194386	6.102720	43.164010
3925.000000	6.567705	6.568418	18.153266
3926.000000	6.327829	6.510494	34.135546
3927.000000	6.248467	5.185777	32.567073
3928.000000	6.541158	6.696231	36.384074
3929.000000	6.579373	6.125935	40.860381
3930.000000	6.373934	7.791483	79.474765
3931.000000	6.660929	6.178510	69.809691
3932.000000	6.253254	5.893432	38.979162
3933.000000	6.681530	6.108951	48.547336
3934.000000	6.713098	6.473929	69.651108
3935.000000	6.472647	5.954038	20.892849
3936.000000	7.216203	6.562191	60.925096
3937.000000	6.805374	6.337620	125.976972
3938.000000	7.909326	7.833979	31.759576
3939.000000	6.712622	6.300109	59.921628
3940.000000	7.665607	7.488483	124.444738
3941.000000	7.607462	7.561447	82.070199
3942.000000	6.921826	7.358691	139.562408
3943.000000	7.071021	7.025457	183.387815
3944.000000	7.900358	7.380822	109.330874
3945.000000	6.874353	6.965565	275.975766
3946.000000	7.333129	7.728195	120.737734
3947.000000	6.486924	6.151671	143.202561
3948.000000	8.013576	6.844446	317.819663
3949.000000	7.492289	7.530317	57.751744
3950.000000	7.984115	7.120910	212.651364
3951.000000	7.379061	7.777062	166.629888
3952.000000	7.701631	8.380151	59.183998
3953.000000	7.148115	7.267002	288.779289
3954.000000	6.675032	5.764515	160.146225
3955.000000	7.034954	6.438210	131.604285
3956.000000	6.989248	7.627665	239.252775
3957.000000	6.323165	7.174171	131.697897
3958.000000	6.071786	5.939294	134.590439
3959.000000	6.961804	7.476261	354.257145
3960.000000	7.630711	7.431817	192.297380
3961.000000	7.347789	6.893360	351.796663
3962.000000	6.596533	6.534919	395.920290
3963.000000	6.795274	6.554834	169.259570
3964.000000	7.079042	7.022902	274.138754
3965.000000	7.681357	7.416432	311.412394
3966.000000	7.181221	6.686175	383.312171
3967.000000	8.282490	8.201278	373.539150
3968.000000	7.848050	7.319314	430.858263
3969.000000	8.048516	7.269149	338.979138
3970.000000	6.676207	6.742394	673.704722
3971.000000	7.793030	7.912879	257.384980
3972.000000	6.798476	6.699586	400.384162
3973.000000	7.164254	6.707608	566.131578
3974.000000	6.254880	6.286202	292.734263
3975.000000	6.843144	7.702112	442.600766
3976.000000	6.993613	7.094186	417.056750
3977.000000	6.899575	7.053181	165.582070
3978.000000	7.565364	7.502584	462.297192
3979.000000	7.237771	8.278648	277.076497
3980.000000	7.607444	7.592996	256.283490
3981.000000	6.525036	6.846127	525.813434
3982.000000	6.756987	7.118590	406.551812
3983.000000	6.447843	6.269113	536.063590
3984.000000	6.623759	5.847883	543.642487
3985.000000	6.465921	6.415267	475.278755
3986.000000	6.454921	5.730129	617.080364
3987.000000	6.283427	6.207844	748.095009
3988.000000	6.525325	6.303858	503.455723
3989.000000	6.877402	6.221922	836.486100
3990.000000	6.539097	6.148973	943.635894
3991.000000	6.335709	7.626727	513.093609
3992.000000	6.886422	5.435359	928.927849
3993.000000	6.807365	6.277660	718.018350
3994.000000	6.529047	6.396921	701.975134
3995.000000	7.066803	6.846407	993.943176
3996.000000	6.571087	6.591941	572.165978
3997.000000	5.953400	5.369733	719.395567
3998.000000	6.089524	6.199477	810.281297
3999.000000	6.009648	6.192882	378.018934
4000.000000	5.950379	5.681890	870.008766
4001.000000	6.145633	5.636435	967.341420
4002.000000	6.849828	6.020042	603.396668
4003.000000	6.454116	5.897335	894.798260
4004.000000	5.789987	5.757774	514.749369
4005.000000	6.034275	5.311138	586.907149
4006.000000	6.310463	6.923817	753.321405
4007.000000	6.213534	6.030403	603.172784
4008.000000	6.275390	5.922084	487.126519
4009.000000	5.875833	5.724542	467.684702
4010.000000	6.248368	6.275230	224.276284
4011.000000	6.961423	6.902790	519.136212
4012.000000	5.965199	5.587972	442.186727
4013.000000	6.175314	6.795946	207.283830
4014.000000	6.334111	6.783603	441.628904
4015.000000	6.906189	6.490568	348.172240
4016.000000	6.097154	5.870904	243.596348
4017.000000	6.606937	6.847942	481.908508
4018.000000	6.041612	5.805377	388.310558
4019.000000	6.393797	7.284863	328.619206
4020.000000	6.104533	7.079580	535.017731
4021.000000	5.647004	5.646199	319.134027
4022.000000	6.613216	7.373611	322.244042
4023.000000	6.982514	6.334698	568.221444
4024.000000	6.481040	6.400467	148.907155
4025.000000	6.982192	7.364057	450.041231
4026.000000	7.575509	7.980742	456.869741
4027.000000	7.443689	7.545965	295.543171
4028.000000	6.075791	6.050394	650.749755
4029.000000	6.529190	5.724961	769.241890
4030.000000	6.490048	6.936884	524.210419
4031.000000	6.492153	5.587498	701.939474
4032.000000	6.942902	7.551235	566.522090
4033.000000	7.118546	7.656300	737.242653
4034.000000	6.845162	7.089659	558.909984
4035.000000	6.558257	6.411606	353.047146
4036.000000	7.575696	7.399450	650.597799
4037.000000	7.812505	9.130566	616.486321
4038.000000	6.769928	6.395580	312.953624
4039.000000	6.485562	6.662747	720.462672
4040.000000	6.853370	7.641621	489.562494
4041.000000	6.826373	6.925865	473.849091
4042.000000	7.013504	7.135881	847.495847
4043.000000	8.213672	7.487042	814.386101
4044.000000	9.042774	8.188948	616.571454
4045.000000	7.664229	7.863042	1051.735325
4046.000000	7.194726	7.113226	706.254298
4047.000000	7.286750	6.528633	851.219502
4048.000000	7.156762	7.055362	1278.308189
4049.000000	8.717992	9.855628	464.346476
4050.000000	8.014375	8.220508	1049.576566
4051.000000	8.731653	8.834182	923.100209
4052.000000	7.205492	6.327738	551.144990
4053.000000	8.365204	8.647958	1005.385847
4054.000000	7.163788	7.012510	1123.070733
4055.000000	7.456297	7.398501	526.399669
4056.000000	8.193141	7.641504	1112.094390
4057.000000	7.046578	6.895618	713.473770
4058.000000	8.766485	8.582641	638.436473
4059.000000	7.927341	8.713030	829.973103
4060.000000	7.806555	6.976210	365.379278
4061.000000	8.155327	8.610856	784.535876
4062.000000	8.177147	8.476076	559.363093
4063.000000	8.672677	8.450998	203.667701
4064.000000	8.255637	8.030224	726.940942
4065.000000	9.588136	10.171237	431.006478
4066.000000	9.793589	10.030633	213.939159
4067.000000	8.838457	9.902504	466.788340
4068.000000	8.072825	7.871112	195.460131
4069.000000	9.432398	8.774828	300.451457
4070.000000	8.918352	9.396027	551.151775
4071.000000	9.460161	9.334509	326.405141
4072.000000	8.231906	7.664003	511.194465
4073.000000	9.169340	7.943525	653.798788
4074.000000	8.314007	8.163559	276.021336
4075.000000	9.883211	8.907437	539.170058
4076.000000	10.425388	9.440148	503.574884
4077.000000	10.607252	11.551253	333.481163
4078.000000	10.137449	10.581297	685.003054
4079.000000	9.055618	8.815213	446.447612
4080.000000	9.925336	9.887569	589.307537
4081.000000	9.441816	9.680085	565.008016
4082.000000	9.975499	9.244864	629.753904
4083.000000	10.749627	10.309325	486.378528
4084.000000	10.339552	9.815326	684.749184
4085.000000	10.794538	10.626624	257.883137
4086.000000	10.620464	10.038135	583.069287
4087.000000	9.772366	9.216614	606.908332
4088.000000	11.308635	12.370858	364.013600
4089.000000	10.182814	9.838829	653.940352
4090.000000	11.991209	12.663674	623.207508
4091.000000	9.856520	10.185487	574.068820
4092.000000	10.104907	10.009793	557.175841
4093.000000	10.956380	11.350187	530.400019
4094.000000	10.671887	10.137927	514.880744
4095.000000	10.646468	10.868481	664.108364
4096.000000	11.540908	11.491361	333.610603
4097.000000	10.545644	9.759853	779.671010
4098.000000	11.077069	9.489402	772.472014
4099.000000	10.762628	10.766273	403.555374
4100.000000	11.303456	12.004950	573.476499
4101.000000	11.402843	9.993037	620.439428
4102.000000	11.170884	11.389130	353.693603
4103.000000	9.676402	8.569038	601.003195
4104.000000	11.185416	10.378415	409.115500
4105.000000	11.800820	11.182221	465.709643
4106.000000	10.469682	9.853803	601.823570
4107.000000	11.155733	10.675208	393.949694
4108.000000	9.831267	8.867377	565.202371
4109.000000	9.671378	9.027658	691.938042
4110.000000	12.038779	12.426194	343.897110
4111.000000	11.221922	11.279486	434.300627
4112.000000	10.548973	10.167411	618.835101
4113.000000	11.161789	10.427924	259.380119
4114.000000	11.372859	11.757829	300.206687
4115.000000	9.904929	8.947001	383.396319
4116.000000	11.138305	9.623147	288.744413
4117.000000	10.303900	11.152497	308.952015
4118.000000	12.324191	12.691274	469.358422
4119.000000	11.794807	10.927056	254.964721
4120.000000	11.258238	12.568215	283.958952
4121.000000	10.415650	11.925995	426.386191
4122.000000	10.812072	11.324988	267.286593
4123.000000	10.265812	9.089791	363.519036
4124.000000	12.361495	12.701871	133.916212
4125.000000	11.155691	10.198598	422.866587
4126.000000	11.942981	11.549354	375.648210
4127.000000	10.210823	10.162955	326.281872
4128.000000	11.598315	11.298771	229.152422
4129.000000	11.852403	11.602212	286.155840
4130.000000	11.247467	10.951763	148.208708
4131.000000	10.854693	10.336224	273.662020
4132.000000	10.554801	11.752493	198.738073
4133.000000	11.127639	11.787541	232.828016
4134.000000	11.802277	10.896919	113.311668
4135.000000	8.805291	9.400008	98.291915
4136.000000	11.051655	11.628883	125.645846
4137.000000	11.021313	11.038752	259.618563
4138.000000	11.064304	9.818350	89.264594
4139.000000	11.559337	11.190700	101.602371
4140.000000	11.257249	10.942284	84.425037
4141.000000	11.769836	11.887466	68.329377
4142.000000	11.591356	12.565858	93.977537
4143.000000	11.992606	11.728921	58.989939
4144.000000	11.895749	12.553895	39.797731
4145.000000	10.858839	10.138498	66.516776
4146.000000	10.270190	11.446680	91.193153
4147.000000	10.498256	9.528386	85.625841
4148.000000	10.379950	10.938689	52.198968
4149.000000	10.462867	10.760118	49.944948
4150.000000	9.878827	9.186215	50.905213
4151.000000	9.499461	10.402635	43.143853
4152.000000	10.504021	10.729706	31.498465
4153.000000	12.115985	12.771999	50.332642
4154.000000	11.137488	10.234172	76.584608
4155.000000	10.530058	11.360920	41.897957
4156.000000	9.971514	8.662513	59.312469
4157.000000	11.816032	11.384671	43.713080
4158.000000	11.391492	10.631715	87.109548
4159.000000	10.730641	10.409483	47.595205
4160.000000	11.492929	11.036825	86.117565
4161.000000	11.084678	9.996965	40.979189
4162.000000	10.968209	11.766761	59.856978
4163.000000	10.313327	9.633058	54.110626
4164.000000	10.010267	9.732232	52.114612
4165.000000	10.538846	9.158333	65.016051
4166.000000	11.097496	11.487356	43.805446
4167.000000	11.526358	9.676712	68.412567
4168.000000	10.633888	10.603141	62.997169
4169.000000	10.485616	10.639706	46.078192
4170.000000	10.680261	10.388102	77.081238
4171.000000	10.198247	9.320384	46.996730
4172.000000	9.785035	9.248403	43.532742
4173.000000	9.241517	8.119711	33.840513
4174.000000	10.566320	9.600686	48.182637
4175.000000	9.645149	10.278514	67.759461
4176.000000	9.776762	9.602862	45.908996
4177.000000	10.048483	11.176794	52.845888
4178.000000	9.849661	10.262333	38.903249
4179.000000	8.731686	9.518191	44.691239
4180.000000	9.602144	9.531572	38.730089
4181.000000	9.808311	10.009473	37.745699
4182.000000	10.626373	9.968773	40.371042
4183.000000	8.925234	8.009351	58.546003
4184.000000	8.440603	8.862802	35.698025
4185.000000	7.536845	6.636447	50.199106
4186.000000	9.233755	8.885388	61.189579
4187.000000	8.360594	8.644630	65.787422
4188.000000	8.766885	9.458820	43.464199
4189.000000	7.328700	7.140383	23.992687
4190.000000	7.496123	7.080510	47.329155
4191.000000	7.145831	7.254221	38.586713
4192.000000	7.875953	7.520703	53.429425
4193.000000	7.344117	7.355302	38.100042
4194.000000	6.823399	6.977384	41.036264
4195.000000	6.808519	6.216441	26.518355
4196.000000	7.065230	6.771547	34.879650
4197.000000	7.734395	7.439165	39.063139
4198.000000	7.675908	8.067010	29.685637
4199.000000	5.759783	6.320522	44.652724
4200.000000	6.226981	5.790155	20.601397
4201.000000	5.847706	6.250020	27.827193
4202.000000	7.191787	6.602224	46.605802
4203.000000	7.294380	7.040040	69.463096
4204.000000	5.377050	5.213454	38.404541
4205.000000	5.707734	5.662326	19.505084
4206.000000	6.074266	5.833597	29.622343
4207.000000	6.496372	6.768485	35.743025
4208.000000	6.115471	6.361999	24.057126
4209.000000	5.692163	5.601665	17.551843
4210.000000	5.719878	5.961152	21.212751
4211.000000	5.469547	5.455864	27.077292
4212.000000	5.500636	5.852242	27.174191
4213.000000	5.335628	4.977787	20.541769
4214.000000	5.565907	5.567995	21.193042
4215.000000	5.603175	5.938455	33.340772
4216.000000	4.481273	4.885434	24.009696
4217.000000	4.853681	5.409491	29.177383
4218.000000	5.521404	5.428378	24.253255
4219.000000	4.521028	4.808514	17.868209
4220.000000	5.356140	4.777154	29.647101
4221.000000	4.917318	5.487985	20.821426
4222.000000	5.333149	4.820685	30.974376
4223.000000	5.156353	5.326316	20.236764
4224.000000	5.022926	4.891172	26.856184
4225.000000	4.972887	5.526105	24.899029
4226.000000	4.485535	4.624460	15.865674
4227.000000	4.671977	4.665872	18.025711
4228.000000	4.973242	5.130602	30.801189
4229.000000	5.325965	5.756224	34.665285
4230.000000	5.023835	4.779109	19.939192
4231.000000	4.562085	4.528178	17.279631
4232.000000	4.889282	4.787116	14.590707
4233.000000	4.888120	4.932929	31.610585
4234.000000	4.822336	5.080729	21.393139
4235.000000	4.173292	3.900979	40.309646
4236.000000	4.566037	3.925349	38.567058
4237.000000	4.850533	4.910502	24.129299
4238.000000	5.189260	4.916557	30.589740
4239.000000	4.578918	4.577553	26.206111
4240.000000	5.116817	5.156935	22.159840
4241.000000	4.446601	4.727216	20.434782
4242.000000	4.224537	4.358359	28.057795
4243.000000	4.603176	4.536426	21.521154
4244.000000	4.638058	4.855869	26.744548
4245.000000	4.491175	4.409461	44.532565
4246.000000	4.788947	4.453399	21.814476
4247.000000	4.841090	4.904274	23.862334
4248.000000	4.818851	4.760891	29.335383
4249.000000	4.233389	3.835145	27.568436
4250.000000	4.727305	4.527861	34.529458
4251.000000	4.626651	4.365311	30.123577
4252.000000	4.343255	4.535868	46.094196
4253.000000	4.660950	4.473427	17.800778
4254.000000	4.212745	4.875677	63.620391
4255.000000	4.202571	4.643651	18.976122
4256.000000	4.976499	4.966876	28.093826
4257.000000	4.465675	4.035665	33.922153
4258.000000	4.458452	4.045006	24.811665
4259.000000	4.765881	4.271134	19.707413
4260.000000	4.592880	4.635065	14.567930
4261.000000	4.849732	4.601442	39.452071
4262.000000	4.242431	4.092180	35.711797
4263.000000	4.507823	4.701274	33.844296
4264.000000	4.433680	4.087474	32.296895
4265.000000	4.196150	4.099222	18.205313
4266.000000	4.521761	4.541681	17.116097
4267.000000	4.315235	4.399895	31.332252
4268.000000	4.355194	4.358314	39.353595
4269.000000	4.533655	4.578239	44.870850
4270.000000	4.130080	4.155936	87.864411
4271.000000	4.917729	5.872287	70.283650
4272.000000	4.438419	4.207076	73.017546
4273.000000	4.864308	4.939468	101.463239
4274.000000	4.951828	5.123304	24.092020
4275.000000	4.349768	4.193897	77.002072
4276.000000	4.675684	4.737751	80.834882
4277.000000	4.017220	3.781379	58.161694
4278.000000	4.072577	3.699741	89.188624
4279.000000	4.398136	4.864792	53.646104
4280.000000	4.269947	4.289811	79.949619
4281.000000	4.190180	4.660201	87.288847
4282.000000	3.995762	3.875955	69.569330
4283.000000	3.967814	3.510119	35.423425
4284.000000	3.908142	4.100641	24.587231
4285.000000	4.211072	4.276183	26.778356
4286.000000	3.731965	3.522366	34.100068
4287.000000	4.596011	4.787201	25.010564
4288.000000	4.143543	3.943743	45.877957
4289.000000	3.901364	4.073403	38.756120
4290.000000	3.832625	3.946297	55.699580
4291.000000	4.362788	5.020589	21.801155
4292.000000	4.051896	3.982326	40.933723
4293.000000	4.284977	4.436815	21.544984
4294.000000	3.752751	3.454602	28.632001
4295.000000	3.791635	3.858134	52.670222
4296.000000	3.648653	3.394596	20.622251
4297.000000	3.858288	3.785845	23.139982
4298.000000	3.747322	3.211792	24.968972
4299.000000	3.802347	3.957176	42.125792
4300.000000	3.518522	3.152235	24.908782
4301.000000	3.579610	3.816686	29.156190
4302.000000	3.148432	3.204007	19.352415
4303.000000	3.863232	3.867717	46.214428
4304.000000	3.628341	4.194326	34.638618
4305.000000	3.418328	3.441929	36.736000
4306.000000	4.016465	3.818364	51.426449
4307.000000	4.337164	4.485657	34.290240
4308.000000	3.683357	3.719239	50.810885
4309.000000	3.691516	3.646699	54.212677
4310.000000	3.419995	3.443756	32.745744
4311.000000	4.214533	4.480262	35.920215
4312.000000	3.439098	3.930569	79.696772
4313.000000	3.844144	3.373733	43.886151
4314.000000	3.688430	3.471103	93.376493
4315.000000	3.874143	3.740419	69.946033
4316.000000	3.606790	3.549755	26.876831
4317.000000	3.782151	3.983069	61.701984
4318.000000	3.347561	3.223718	31.493516
4319.000000	3.619124	3.400731	86.845487
4320.000000	3.784353	3.979053	48.262882
4321.000000	3.728839	3.786147	54.952820
4322.000000	4.023177	4.847311	24.592538
4323.000000	3.898737	3.907133	62.589571
4324.000000	4.488312	4.204155	57.655863
4325.000000	3.696545	3.663449	58.135263
4326.000000	3.448578	3.028921	75.523102
4327.000000	3.963898	3.909778	21.499495
4328.000000	4.422544	4.001308	89.532405
4329.000000	3.310545	3.226595	73.197521
4330.000000	3.905588	3.949849	86.075379
4331.000000	4.337093	4.434820	59.004899
4332.000000	3.921428	4.028110	78.509682
4333.000000	3.800879	4.346702	100.463484
4334.000000	3.819253	3.830958	111.891861
4335.000000	4.719086	4.543787	74.098274
4336.000000	3.524944	3.496212	49.412254
4337.000000	4.383490	4.379643	85.799997
4338.000000	4.113608	3.991836	28.392406
4339.000000	3.731758	3.856480	98.767907
4340.000000	3.805518	4.158810	69.747951
4341.000000	3.384614	3.376718	62.826114
4342.000000	3.553597	3.493018	69.246944
4343.000000	3.579565	3.582520	46.112684
4344.000000	3.580985	3.877454	67.755698
4345.000000	4.151416	3.913279	67.684243
4346.000000	3.651005	3.753997	50.628974
4347.000000	3.865136	3.695587	87.255420
4348.000000	3.805690	3.778024	117.757904
4349.000000	4.001453	4.109765	68.738510
4350.000000	3.037905	3.019064	80.708959
4351.000000	3.942434	3.986516	78.366729
4352.000000	5.569792	5.049828	63.913613
4353.000000	3.687384	4.179789	101.184116
4354.000000	3.824994	3.593608	88.736412
4355.000000	3.703228	4.086940	91.410041
4356.000000	3.356100	2.951983	151.845959
4357.000000	3.736177	3.616476	41.411787
4358.000000	3.128810	3.094973	104.665729
4359.000000	3.413359	3.475784	112.003768
4360.000000	5.856949	5.366152	111.102443
4361.000000	4.116380	3.974552	54.033525
4362.000000	3.506576	3.256682	61.216192
4363.000000	3.196326	3.099507	41.063508
4364.000000	3.080479	2.896943	58.633632
4365.000000	3.465320	3.501907	43.634763
4366.000000	3.459907	3.460728	50.148750
4367.000000	5.780503	5.069138	99.358737
4368.000000	4.818164	4.670783	49.308108
4369.000000	3.289514	3.148455	84.861328
4370.000000	2.887954	2.870761	87.080013
4371.000000	3.308543	3.512670	61.862240
4372.000000	3.356265	3.211988	83.077681
4373.000000	3.219204	2.876454	75.835681
4374.000000	3.573212	3.298096	40.961631
4375.000000	5.790227	5.295025	58.935358
4376.000000	4.434970	4.522444	53.428233
4377.000000	3.110321	2.997729	66.072767
4378.000000	3.460644	3.389255	105.275623
4379.000000	2.934769	2.872657	71.039115
4380.000000	3.262820	3.164527	61.148980
4381.000000	4.261743	4.225206	70.081309
4382.000000	5.746941	5.385323	42.185280
4383.000000	4.911905	4.261494	105.030864
4384.000000	3.359424	3.115967	68.544004
4385.000000	3.053141	2.813784	42.109146
4386.000000	2.798496	2.860788	39.672400
4387.000000	3.160404	2.871625	80.312130
4388.000000	3.297663	2.915960	29.790348
4389.000000	3.248014	3.116388	52.450038
4390.000000	3.748835	3.705207	57.944995
4391.000000	3.472229	3.759559	35.267314
4392.000000	3.333468	3.412448	68.899072
4393.000000	3.273814	3.310963	48.191319
4394.000000	4.017495	3.847997	39.561030
4395.000000	3.819371	3.588005	84.677655
4396.000000	3.272240	3.413295	44.271102
4397.000000	4.117800	4.670884	72.102719
4398.000000	3.647670	3.630927	119.217515
4399.000000	3.383832	3.350275	76.469175
4400.000000	3.588535	3.396003	132.855099
4401.000000	3.460644	3.441686	122.910038
4402.000000	3.377028	3.364459	69.123735
4403.000000	4.055490	3.999685	121.011035
4404.000000	3.879272	4.006197	123.925611
4405.000000	4.253161	3.863333	47.302887
4406.000000	5.660758	5.118577	128.306124
4407.000000	3.721263	3.537388	82.595497
4408.000000	3.001940	2.742537	53.731949
4409.000000	3.656118	3.644151	106.105656
4410.000000	3.768464	3.667925	50.146573
4411.000000	3.964044	3.432843	148.821824
4412.000000	3.681981	4.137433	96.828586
4413.000000	3.893359	3.849667	50.049141
4414.000000	5.427366	4.965208	85.214749
4415.000000	3.908906	3.916682	88.343385
4416.000000	3.965296	3.631164	25.666179
4417.000000	4.104399	3.846741	77.519119
4418.000000	3.889878	3.298660	44.019530
4419.000000	4.141425	3.802443	40.805399
4420.000000	6.009179	5.345500	26.598701
4421.000000	7.290367	5.914941	36.347307
4422.000000	4.336596	4.709110	23.870112
4423.000000	3.809833	3.691343	44.750570
4424.000000	4.474168	4.610361	28.440324
4425.000000	3.599177	3.394345	15.552071
4426.000000	3.744887	3.775993	18.210539
4427.000000	4.079678	3.945494	14.644226
4428.000000	5.349295	5.582025	32.625945
4429.000000	4.160899	4.101632	26.940172
4430.000000	4.157320	3.779328	26.049555
4431.000000	4.115693	4.296172	27.909119
4432.000000	3.719551	3.876563	23.461746
4433.000000	4.299905	4.194496	23.112020
4434.000000	4.536585	4.908780	28.698871
4435.000000	7.283447	6.530672	24.578116
4436.000000	7.875522	7.676566	41.519673
4437.000000	4.173855	3.827319	11.254283
4438.000000	4.292070	4.242570	41.708828
4439.000000	4.518864	4.468681	22.899850
4440.000000	4.454402	4.369670	34.595101
4441.000000	4.635905	4.348384	40.114388
4442.000000	6.005165	5.216860	33.515290
4443.000000	5.156837	4.622352	39.230457
4444.000000	4.879580	4.971418	56.192662
4445.000000	4.584759	4.813063	27.595183
4446.000000	4.754234	4.704649	38.511107
4447.000000	4.452876	4.418455	19.620989
4448.000000	4.182779	3.774939	52.994699
4449.000000	4.884028	5.545566	23.107848
4450.000000	8.383427	7.264098	30.106147
4451.000000	6.430850	5.582805	36.817007
4452.000000	4.436735	4.266295	23.442331
4453.000000	4.604390	4.010126	35.206315
4454.000000	4.662101	4.571352	28.239910
4455.000000	4.857970	5.169095	19.123185
4456.000000	5.375659	5.828994	21.226422
4457.000000	4.909909	5.462053	29.689727
4458.000000	8.195862	6.943288	31.275615
4459.000000	4.612311	4.673162	23.038313
4460.000000	4.242107	4.011026	31.457166
4461.000000	4.453568	4.642448	25.239219
4462.000000	4.793265	5.202158	30.524378
4463.000000	4.920449	4.820262	16.241413
4464.000000	7.157689	6.333664	53.794656
4465.000000	5.526884	5.030757	61.211551
4466.000000	6.327772	5.335146	38.501107
4467.000000	5.025574	5.629519	24.657641
4468.000000	5.155694	5.311491	22.275335
4469.000000	4.833624	4.612211	30.331077
4470.000000	5.360527	4.726908	27.998617
4471.000000	4.615112	4.678884	24.598855
4472.000000	6.722806	7.107625	27.889446
4473.000000	6.186341	6.238525	36.323709
4474.000000	4.670498	5.533700	29.185669
4475.000000	5.141318	5.130533	51.567458
4476.000000	4.187341	4.452147	21.270559
4477.000000	5.047006	5.192781	26.753348
4478.000000	5.107129	4.795204	32.864063
4479.000000	5.907002	5.937425	28.671852
4480.000000	6.351410	6.053238	28.775271
4481.000000	6.206779	5.940725	19.269544
4482.000000	4.804215	4.667486	19.751409
4483.000000	5.055761	4.612844	23.169396
4484.000000	4.962126	4.553080	36.004580
4485.000000	4.537316	4.568348	22.061692
4486.000000	7.387816	6.846627	22.610444
4487.000000	5.015913	5.316061	27.878396
4488.000000	5.945987	5.571298	30.079556
4489.000000	4.610930	4.448689	19.578078
4490.000000	5.553037	5.555892	26.785458
4491.000000	5.671139	5.787503	26.877907
4492.000000	4.532285	4.566825	28.517966
4493.000000	4.881616	5.217388	18.255732
4494.000000	6.523329	6.172368	30.253130
4495.000000	7.373181	7.078687	27.181846
4496.000000	4.739101	4.063362	28.933161
4497.000000	5.518532	5.218029	22.028748
4498.000000	5.052821	4.937388	25.859683
4499.000000	4.925214	4.672883	27.779381
4500.000000	5.170370	4.148832	24.353535
4501.000000	7.583868	7.242313	40.162015
4502.000000	6.509246	6.167105	30.049186
4503.000000	4.587194	4.601346	69.953758
4504.000000	4.838512	4.832505	64.282149
4505.000000	4.598721	4.844662	61.985763
4506.000000	4.482971	4.293231	22.148612
4507.000000	5.005476	5.379573	29.196378
4508.000000	4.768042	4.364171	22.543498
4509.000000	7.447994	6.841441	64.689585
4510.000000	5.555066	5.783374	35.977825
4511.000000	4.097100	4.110506	25.091500
4512.000000	4.634781	4.802479	19.743042
4513.000000	4.058603	3.803043	51.058447
4514.000000	4.349794	4.335906	32.038028
4515.000000	4.619048	4.801671	20.674330
4516.000000	4.392558	4.230641	12.896633
4517.000000	6.852362	5.410531	42.135690
4518.000000	4.747080	4.787077	17.581954
4519.000000	4.519293	4.479876	24.103374
4520.000000	3.857292	3.903414	33.041804
4521.000000	4.055171	4.149884	16.149673
4522.000000	7.264998	6.240501	35.227015
4523.000000	7.287899	5.394229	23.863406
4524.000000	3.884153	3.857114	20.014694
4525.000000	3.891956	3.798893	12.557057
4526.000000	4.255792	4.519061	17.187864
4527.000000	3.544844	3.171494	14.325360
4528.000000	3.851526	3.885308	14.625109
4529.000000	3.707022	3.286101	14.085172
4530.000000	4.423599	4.166863	15.210254
4531.000000	3.164061	3.282100	16.112903
4532.000000	3.490998	3.348432	12.103160
4533.000000	4.112301	4.063574	17.931749
4534.000000	3.274864	3.142691	15.497699
4535.000000	3.056279	2.679639	21.269537
4536.000000	3.471180	4.069167	9.815761
4537.000000	3.777925	3.910414	20.200651
4538.000000	3.230707	3.351353	12.682828
4539.000000	6.315997	5.211845	27.909070
4540.000000	3.448683	3.715601	14.268173
4541.000000	3.265116	3.677454	12.409886
4542.000000	3.287340	3.177208	10.944928
4543.000000	3.007476	2.997833	21.077020
4544.000000	2.861622	2.869896	23.299502
4545.000000	6.181246	5.553346	20.231286
4546.000000	5.654877	4.950162	28.500220
4547.000000	3.094481	2.929832	27.513017
4548.000000	3.164437	2.985005	28.340817
4549.000000	2.844507	2.834999	11.903984
4550.000000	2.676319	2.643687	22.876799
4551.000000	3.424123	3.359318	16.292067
4552.000000	3.914597	3.848266	18.411015
4553.000000	5.505103	4.974417	28.145852
4554.000000	2.978080	2.976470	11.801717
4555.000000	2.906570	2.986444	12.768654
4556.000000	2.497510	2.644598	15.816407
4557.000000	2.968206	2.780661	12.772682
4558.000000	2.700476	2.516559	15.320206
4559.000000	5.889813	4.842719	19.296539
4560.000000	6.116275	5.007331	28.454909
4561.000000	4.217372	3.554778	21.854555
4562.000000	2.540548	2.348637	27.624497
4563.000000	2.551083	2.356899	25.361259
4564.000000	2.296142	2.075540	43.624159
4565.000000	2.575156	2.747246	21.061329
4566.000000	2.349753	2.317455	33.252319
4567.000000	5.080035	4.367869	95.932423
4568.000000	3.600701	2.960344	18.632056
4569.000000	2.930004	2.462229	54.203024
4570.000000	2.317381	2.125265	92.134330
4571.000000	2.278597	2.275867	89.127658
4572.000000	2.148317	2.188648	69.341091
4573.000000	2.517112	2.522504	93.647558
4574.000000	2.266707	2.259229	44.991546
4575.000000	2.572726	2.381454	73.958360
4576.000000	1.909168	1.828250	83.516420
4577.000000	1.731070	1.985617	25.837547
4578.000000	2.121881	2.320501	77.353186
4579.000000	2.232852	2.242881	71.274236
4580.000000	2.079093	1.942315	62.453955
4581.000000	1.988746	1.976902	58.587865
4582.000000	2.020873	1.798402	49.337042
4583.000000	2.679206	2.404096	31.036294
4584.000000	2.248983	2.450821	47.393511
4585.000000	2.070531	2.033326	44.670616
4586.000000	1.939795	1.915647	40.418758
4587.000000	1.935897	1.868331	98.383800
4588.000000	1.914181	1.916195	54.695903
4589.000000	2.026276	2.091253	116.040905
4590.000000	4.806233	3.931056	77.904885
4591.000000	1.993915	1.921263	46.555007
4592.000000	2.502888	2.173916	138.680693
4593.000000	2.009229	1.982479	64.063444
4594.000000	1.973369	2.243868	106.312275
4595.000000	1.792140	1.837841	86.987525
4596.000000	1.666670	1.711578	77.901667
4597.000000	1.788015	1.766772	110.668983
4598.000000	3.891349	3.000015	89.374689
4599.000000	4.431011	3.801590	60.163952
4600.000000	1.819056	1.678580	79.423057
4601.000000	1.882961	1.890512	169.922001
4602.000000	1.746839	1.625193	54.281342
4603.000000	1.897311	1.888592	122.213126
4604.000000	1.991988	2.385969	93.099453
4605.000000	1.956684	1.809921	67.956782
4606.000000	1.875439	1.762193	71.991371
4607.000000	2.201214	2.097990	48.827799
4608.000000	2.029491	2.033452	50.241224
4609.000000	2.058723	2.246458	69.862350
4610.000000	2.084680	1.901594	22.990471
4611.000000	3.559281	3.186401	14.449963
4612.000000	3.213714	3.008097	25.113503
4613.000000	1.946932	1.904684	9.404552
4614.000000	1.762927	1.966257	37.174898
4615.000000	2.575358	2.446261	19.919584
4616.000000	2.023995	2.080018	47.884376
4617.000000	1.790866	1.750246	14.548163
4618.000000	1.820530	1.738776	24.387817
4619.000000	1.744709	1.835973	19.778972
4620.000000	1.910556	1.799269	22.857366
4621.000000	1.882256	1.810385	27.994795
4622.000000	2.086845	2.196149	25.122598
4623.000000	2.193693	2.179775	22.202957
4624.000000	2.821525	2.415543	12.036376
4625.000000	2.029427	2.053509	18.831926
4626.000000	2.032999	1.892691	14.282627
4627.000000	2.017124	2.134510	27.971549
4628.000000	3.158539	3.143429	39.887173
4629.000000	2.010289	1.978763	9.758623
4630.000000	2.094036	1.991203	8.951831
4631.000000	2.346011	2.226670	30.270848
4632.000000	4.496932	3.831230	19.380864
4633.000000	1.987827	1.838031	19.587886
4634.000000	2.341243	2.499144	27.055861
4635.000000	1.976627	1.994698	24.291620
4636.000000	2.713819	2.709030	53.757665
4637.000000	3.063909	2.860322	49.429576
4638.000000	2.526280	2.386845	34.510379
4639.000000	2.019664	2.168820	86.139200
4640.000000	1.997605	2.146452	87.181289
4641.000000	3.260104	2.879568	49.657765
4642.000000	1.951281	1.866157	57.554213
4643.000000	2.324191	2.377767	51.310582
4644.000000	2.058399	2.047616	31.964383
4645.000000	2.347957	2.516044	72.394221
4646.000000	2.138404	2.395960	38.387015
4647.000000	2.179372	2.084978	57.718759
4648.000000	2.427666	2.228593	29.565567
4649.000000	2.382969	2.086711	40.368836
4650.000000	2.183460	2.085434	73.233406
4651.000000	1.944932	2.143759	16.174288
4652.000000	2.155371	2.375905	34.828012
4653.000000	2.388522	2.544907	112.797256
4654.000000	2.792230	2.843577	66.602204
4655.000000	2.137541	2.085031	91.231284
4656.000000	2.163279	2.045978	90.915161
4657.000000	2.718921	2.610400	55.835839
4658.000000	2.178281	1.944513	94.220905
4659.000000	2.544725	2.434033	86.685217
4660.000000	2.644074	2.553571	44.323568
4661.000000	2.172165	2.119992	70.337854
4662.000000	2.491978	2.595317	81.404306
4663.000000	3.344761	3.984217	34.710865
4664.000000	2.566797	2.674278	150.592371
4665.000000	2.416806	2.604489	66.839339
4666.000000	2.785546	2.555334	40.851175
4667.000000	2.346540	2.420500	123.010216
4668.000000	2.599146	2.747932	75.580457
4669.000000	2.518497	2.599163	80.035357
4670.000000	2.669016	2.623287	181.086177
4671.000000	3.892321	4.433285	102.029942
4672.000000	2.337113	2.360146	116.424020
4673.000000	2.573474	2.639882	149.716670
4674.000000	2.396923	2.447055	79.260549
4675.000000	2.802414	2.861747	182.097782
4676.000000	2.639706	2.668056	178.698168
4677.000000	2.957713	3.063836	110.590036
4678.000000	2.910635	2.965480	171.210863
4679.000000	3.076937	3.303934	191.659771
4680.000000	2.878934	2.806165	158.389441
4681.000000	3.023523	2.848441	262.999233
4682.000000	2.628465	2.983179	148.908697
4683.000000	2.757374	3.014666	185.756787
4684.000000	3.658897	3.524041	227.453850
4685.000000	3.256614	3.248781	131.569135
4686.000000	2.814789	2.585657	242.465165
4687.000000	2.781375	2.782229	270.745735
4688.000000	3.041817	3.022636	116.283115
4689.000000	2.881764	3.087126	236.426766
4690.000000	2.947565	2.852893	205.214421
4691.000000	2.711063	2.552420	122.564035
4692.000000	3.327779	3.469525	244.431354
4693.000000	2.611723	2.761272	181.180058
4694.000000	2.924458	2.949565	182.197905
4695.000000	2.915459	2.795727	208.468150
4696.000000	2.838177	2.647376	132.524620
4697.000000	2.833735	3.138701	222.127923
4698.000000	3.254540	3.213034	167.942399
4699.000000	2.544224	2.590720	126.086867
4700.000000	2.835374	2.858049	241.918637
4701.000000	2.796935	2.648715	108.794167
4702.000000	2.663976	2.510116	112.802613
4703.000000	2.738409	2.777912	122.426418
4704.000000	3.085559	3.048739	211.842970
4705.000000	2.894898	2.849727	117.916363
4706.000000	2.942047	2.987544	120.714112
4707.000000	2.975036	3.126643	117.111843
4708.000000	3.247436	3.130921	84.588645
4709.000000	2.719101	3.085514	109.190532
4710.000000	2.774942	2.522672	85.642054
4711.000000	3.103052	2.800298	77.722150
4712.000000	2.916898	2.672179	89.783117
4713.000000	2.837130	2.671079	44.263542
4714.000000	2.690115	2.874302	38.922349
4715.000000	2.659325	2.749679	92.025270
4716.000000	2.614182	2.649164	31.412974
4717.000000	3.077613	2.775251	102.680512
4718.000000	2.551935	2.630874	78.285460
4719.000000	2.658620	2.443769	88.301913
4720.000000	2.753597	2.802807	89.807957
4721.000000	2.667209	3.085545	65.584518
4722.000000	2.857702	2.570647	51.451656
4723.000000	2.860654	2.390838	40.619575
4724.000000	3.103076	2.976832	34.198523
4725.000000	2.666001	2.731389	41.160537
4726.000000	2.738675	2.681293	55.121648
4727.000000	2.666012	2.712247	29.039335
4728.000000	2.563010	2.732737	29.652047
4729.000000	2.643739	2.387684	21.987165
4730.000000	2.817384	2.719894	25.939584
4731.000000	2.924348	3.020760	19.758954
4732.000000	2.835023	2.709134	19.365383
4733.000000	2.907805	3.081441	26.964827
4734.000000	2.679593	2.393220	16.753437
4735.000000	2.660150	2.692019	15.402816
4736.000000	2.429859	2.685639	11.153605
4737.000000	2.266181	2.068517	27.430181
4738.000000	2.805338	2.860754	10.139618
4739.000000	2.459349	2.518730	45.129394
4740.000000	2.510463	2.306834	33.826675
4741.000000	2.895841	2.852166	19.069125
4742.000000	2.506971	2.516926	36.962273
4743.000000	2.569088	2.283017	29.141946
4744.000000	2.761302	2.672680	28.236112
4745.000000	2.738592	2.722256	7.716041
4746.000000	2.798518	2.815059	11.290560
4747.000000	2.763818	2.582985	21.115034
4748.000000	2.904367	2.762888	17.423230
4749.000000	2.693744	2.396909	14.635390
4750.000000	2.615621	2.797558	17.262776
4751.000000	2.976737	2.962998	19.011626
4752.000000	2.861506	2.731024	17.497763
4753.000000	2.539959	2.588560	28.418361
4754.000000	2.778117	2.556305	30.675432
4755.000000	2.422208	2.450069	18.644268
4756.000000	2.571314	2.211842	35.594195
4757.000000	2.620881	2.662774	14.152160
4758.000000	2.897787	2.557432	17.300352
4759.000000	2.730589	2.781242	50.832114
4760.000000	2.808363	2.992876	17.416933
4761.000000	2.758473	2.590469	22.981793
4762.000000	2.870523	2.772045	35.060113
4763.000000	2.689701	2.652239	29.874526
4764.000000	2.829135	2.702714	54.028406
4765.000000	2.264752	2.296388	60.233066
4766.000000	2.813572	2.931763	26.980283
4767.000000	2.606450	2.481984	67.712100
4768.000000	2.766755	2.822670	30.215198
4769.000000	2.752102	2.622736	60.635621
4770.000000	2.741209	2.742423	78.401383
4771.000000	2.852675	2.750398	38.837950
4772.000000	2.629786	2.564365	87.580225
4773.000000	3.194102	3.152463	115.227216
4774.000000	3.374144	3.360079	34.624756
4775.000000	2.746266	2.747647	50.976370
4776.000000	3.205338	3.225230	38.582261
4777.000000	2.706098	2.827530	23.771420
4778.000000	2.915663	2.723731	37.139020
4779.000000	3.042662	2.871571	33.665670
4780.000000	2.873074	2.820399	30.357598
4781.000000	3.169028	3.111117	54.151168
4782.000000	3.018118	2.899772	33.131848
4783.000000	2.811582	2.935278	58.934902
4784.000000	3.087318	3.029446	41.261284
4785.000000	3.195819	3.659438	24.040128
4786.000000	3.306478	3.352629	28.401820
4787.000000	2.656273	2.614727	70.920347
4788.000000	3.041106	3.322909	49.702876
4789.000000	3.383894	3.667967	68.296027
4790.000000	3.161287	2.946483	98.870554
4791.000000	3.355764	3.559104	57.395179
4792.000000	3.380124	3.476146	125.476771
4793.000000	3.752776	3.523607	60.080853
4794.000000	3.079402	3.500345	79.126084
4795.000000	3.434884	3.381786	34.655326
4796.000000	3.528642	3.922998	43.772841
4797.000000	4.455144	4.639295	57.933230
4798.000000	4.286093	4.036627	67.458307
4799.000000	4.573028	4.564900	35.402517
4800.000000	5.206264	5.092994	185.245136
4801.000000	3.508194	3.417128	139.497428
4802.000000	4.976762	4.740104	85.312542
4803.000000	3.490021	3.532065	225.852982
4804.000000	4.247634	4.104745	165.375740
4805.000000	3.900673	3.386927	164.045277
4806.000000	3.542469	3.380879	235.148822
4807.000000	3.461875	3.342080	236.050644
4808.000000	4.261363	3.969664	222.259213
4809.000000	4.113641	4.045770	270.922558
4810.000000	4.052658	4.422166	142.084580
4811.000000	4.385536	4.345870	214.551380
4812.000000	3.877546	3.758557	224.882790
4813.000000	3.788013	3.985316	139.326946
4814.000000	4.076771	3.995420	236.506681
4815.000000	3.831047	3.856579	322.454093
4816.000000	4.618784	4.573266	94.455897
4817.000000	3.328790	3.455897	266.290281
4818.000000	4.100119	3.846877	255.251971
4819.000000	4.323791	4.157247	184.792230
4820.000000	3.881010	3.889955	305.533408
4821.000000	4.026089	3.846357	182.137818
4822.000000	4.210987	3.879871	260.478220
4823.000000	4.253831	4.194512	224.395778
4824.000000	3.903941	4.126412	153.842535
4825.000000	4.223675	4.224825	205.399892
4826.000000	4.064256	4.290254	200.569819
4827.000000	3.510054	3.071502	172.882186
4828.000000	3.807872	3.681867	240.483151
4829.000000	3.882962	3.963537	251.236490
4830.000000	3.995021	4.342986	156.817918
4831.000000	4.370274	4.547588	290.369903
4832.000000	3.978660	3.669977	274.730357
4833.000000	4.400213	4.419202	130.059197
4834.000000	4.421962	4.272708	165.506208
4835.000000	4.393120	4.614996	93.156844
4836.000000	3.732499	3.789075	159.944344
4837.000000	4.042911	3.884468	72.859493
4838.000000	4.038112	4.251005	63.740620
4839.000000	4.077671	3.633667	107.811904
4840.000000	4.295930	4.611024	141.562948
4841.000000	4.223765	3.933325	52.937594
4842.000000	3.676984	3.705603	92.008812
4843.000000	3.873748	3.920006	44.203367
4844.000000	3.721089	3.682055	49.603488
4845.000000	3.987537	3.832445	129.659770
4846.000000	4.197086	4.225385	60.856589
4847.000000	4.303128	4.330651	101.713404
4848.000000	3.862026	4.535982	101.510511
4849.000000	3.749479	3.813908	34.590550
4850.000000	3.894984	3.782730	130.253537
4851.000000	3.515502	3.566247	81.919203
4852.000000	3.968833	3.443714	63.051200
4853.000000	3.808472	3.508067	94.806824
4854.000000	3.897452	3.700318	48.248493
4855.000000	3.971825	3.379823	100.883913
4856.000000	3.796874	3.634894	73.627988
4857.000000	3.838132	3.609238	45.430567
4858.000000	3.688628	3.568622	76.957483
4859.000000	4.093699	3.611547	67.516055
4860.000000	3.294446	3.332700	28.704970
4861.000000	3.685994	4.160712	49.166111
4862.000000	4.132597	4.362498	64.280268
4863.000000	3.422775	3.476259	27.978613
4864.000000	3.392397	3.663354	60.603058
4865.000000	3.461019	3.304777	37.714206
4866.000000	3.431394	3.634365	63.902588
4867.000000	3.799687	4.345621	61.339066
4868.000000	3.134475	3.211565	76.712134
4869.000000	3.612303	3.578421	73.184623
4870.000000	2.896784	3.045227	59.123280
4871.000000	3.265105	2.823594	32.620357
4872.000000	3.002865	3.124353	12.770451
4873.000000	3.456309	3.055268	26.774766
4874.000000	3.249534	3.361821	20.319454
4875.000000	2.961810	3.088381	30.327165
4876.000000	3.409375	3.533457	19.602505
4877.000000	2.871077	3.028105	15.749017
4878.000000	2.798117	2.720831	22.346619
4879.000000	3.343927	3.354610	31.557052
4880.000000	3.369554	3.209581	18.241995
4881.000000	2.760406	2.885863	29.878317
4882.000000	2.547211	2.366589	46.017964
4883.000000	2.484107	2.450936	13.364059
4884.000000	2.936159	2.809433	18.095678
4885.000000	2.602005	2.626418	14.723835
4886.000000	2.598881	2.787729	61.603745
4887.000000	2.627686	2.816920	39.184946
4888.000000	2.618187	2.794016	29.063530
4889.000000	2.657622	2.877512	54.171673
4890.000000	2.562742	2.669842	34.808856
4891.000000	2.462916	2.346334	23.728253
4892.000000	2.569899	2.947175	32.665168
4893.000000	2.543760	2.337960	27.221862
4894.000000	2.378540	2.364453	43.404721
4895.000000	2.498972	2.525006	61.063334
4896.000000	2.497392	2.380574	37.443060
4897.000000	2.277546	2.458561	19.602860
4898.000000	2.522571	2.584908	30.319210
4899.000000	2.508721	2.560275	19.933258
4900.000000	2.388607	2.454468	9.248831
4901.000000	1.997731	1.970372	34.111671
4902.000000	2.406381	2.702793	11.072589
4903.000000	2.373968	2.374495	11.426273
4904.000000	2.412844	2.293848	10.720106
4905.000000	2.154829	2.183259	10.699367
4906.000000	1.969912	1.872554	12.988546
4907.000000	2.311418	2.306935	8.541392
4908.000000	2.096142	1.992237	8.646384
4909.000000	1.920067	2.084605	8.809348
4910.000000	2.292601	2.233447	18.753650
4911.000000	2.275367	2.360408	10.978276
4912.000000	2.169859	2.127062	25.404154
4913.000000	1.978007	1.990247	7.187882
4914.000000	2.342588	2.247305	14.192719
4915.000000	2.052739	2.004848	7.263077
4916.000000	2.238907	2.357972	15.655437
4917.000000	1.970687	1.885469	12.934651
4918.000000	1.788066	1.514746	8.621413
4919.000000	2.087760	1.992843	7.746610
4920.000000	1.960417	1.943297	10.431654
4921.000000	2.140612	2.294568	9.204915
4922.000000	2.134772	2.105404	11.442857
4923.000000	2.069819	2.037174	8.623703
4924.000000	1.783422	1.616208	11.215690
4925.000000	1.880941	1.866683	10.399781
4926.000000	1.871691	1.805742	8.962333
4927.000000	1.890827	1.627647	8.223686
4928.000000	1.922228	1.893789	10.327356
4929.000000	2.193144	2.217219	9.162231
4930.000000	2.837674	2.968527	13.011202
4931.000000	2.157011	1.950736	14.855815
4932.000000	2.341699	2.288777	9.566894
4933.000000	1.886948	1.680180	17.740920
4934.000000	1.918138	1.901044	15.612069
4935.000000	1.743006	1.676681	12.202287
4936.000000	1.606643	1.532888	9.683360
4937.000000	2.017467	1.813012	23.955000
4938.000000	1.730022	1.614713	15.601495
4939.000000	1.658779	1.526648	24.934627
4940.000000	1.692972	1.820459	12.479037
4941.000000	1.663296	1.670451	15.880194
4942.000000	2.750910	2.648048	20.968249
4943.000000	3.448748	3.549496	26.885555
4944.000000	1.976404	1.962676	28.320427
4945.000000	1.798803	1.878692	23.750188
4946.000000	1.805554	1.771462	14.433436
4947.000000	1.838024	1.759365	16.066463
4948.000000	1.782687	1.926617	33.933070
4949.000000	1.565487	1.571067	12.854253
4950.000000	1.673719	1.708249	28.584991
4951.000000	1.764876	1.823311	26.050341
4952.000000	1.905147	1.833063	29.983147
4953.000000	1.754058	1.605493	34.298284
4954.000000	1.804758	1.788250	33.235507
4955.000000	2.120670	2.062994	25.887410
4956.000000	1.710989	1.770582	31.892177
4957.000000	2.008023	2.005011	23.603765
4958.000000	1.906693	2.136874	39.672127
4959.000000	1.886172	1.990954	23.392837
4960.000000	1.747285	1.861640	20.438942
4961.000000	1.644736	1.704973	28.537879
4962.000000	2.018962	1.957122	42.312426
4963.000000	1.794058	1.636597	16.092062
4964.000000	1.731754	1.815114	33.431090
4965.000000	1.929516	1.907399	30.473897
4966.000000	1.824976	1.822460	19.218083
4967.000000	1.850976	1.667815	32.718410
4968.000000	1.973943	2.057106	25.671952
4969.000000	1.904125	1.777944	32.225814
4970.000000	1.870962	1.863791	19.089607
4971.000000	2.110845	1.939255	21.811642
4972.000000	1.718223	1.787467	39.437342
4973.000000	2.173778	2.175022	65.810960
4974.000000	1.971730	1.821946	16.969983
4975.000000	2.403176	2.422137	30.503694
4976.000000	2.020621	2.112652	32.191539
4977.000000	2.102987	2.077156	29.966671
4978.000000	1.916503	1.818835	36.495332
4979.000000	2.177491	2.327183	46.852370
4980.000000	2.108256	1.902101	39.423967
4981.000000	2.105125	2.318053	78.201193
4982.000000	2.205037	2.143004	50.344326
4983.000000	2.220470	2.168684	58.633405
4984.000000	1.837115	1.681989	102.424841
4985.000000	2.238065	1.975266	44.561998
4986.000000	2.358619	2.358048	95.544948
4987.000000	2.443290	2.577889	133.238281
4988.000000	2.465567	2.475951	53.703473
4989.000000	2.087138	1.951161	77.912629
4990.000000	1.972910	2.058193	103.088282
4991.000000	2.147557	2.246429	74.550444
4992.000000	2.008736	1.946387	136.503888
4993.000000	2.472924	2.499980	90.727097
4994.000000	2.348611	2.368179	100.333504
4995.000000	2.346352	2.341319	105.295144
4996.000000	2.285375	2.066862	67.572556
4997.000000	2.289920	2.182693	127.896027
4998.000000	2.600025	2.621241	92.660883
4999.000000	2.503358	2.441939	46.369282
5000.000000	2.658750	2.546527	84.049843
5001.000000	2.609714	2.451045	86.633835
5002.000000	3.003634	3.115328	31.205440
5003.000000	2.571225	2.495038	54.806107
5004.000000	2.385239	2.087891	51.131052
5005.000000	2.473360	2.441065	32.749086
5006.000000	2.433008	2.256226	80.671542
5007.000000	2.579018	2.561455	99.491738
5008.000000	2.501276	2.569943	95.492787
5009.000000	2.373782	2.111824	132.878228
5010.000000	2.657615	2.259013	46.643733
5011.000000	2.842107	2.747436	116.274478
5012.000000	2.533199	2.417721	78.287590
5013.000000	2.434850	2.648837	57.825609
5014.000000	3.141864	2.929614	56.349822
5015.000000	2.800969	2.680966	67.858854
5016.000000	2.761470	2.642269	25.518226
5017.000000	2.771003	3.017395	91.491705
5018.000000	2.495786	2.554804	61.951560
5019.000000	3.119390	3.243299	59.668829
5020.000000	2.597651	2.591589	85.196534
5021.000000	2.753588	2.779563	29.642570
5022.000000	2.931351	2.851676	56.937850
5023.000000	3.056387	2.849085	36.659822
5024.000000	2.945049	3.223911	21.555058
5025.000000	3.083950	2.795582	22.473221
5026.000000	2.713318	2.495642	46.113172
5027.000000	3.253118	3.390906	17.503639
5028.000000	3.176563	2.983971	24.844996
5029.000000	3.180952	3.089520	27.408536
5030.000000	2.955324	2.846964	30.396742
5031.000000	2.990427	3.065154	14.376419
5032.000000	3.220452	3.192781	30.168977
5033.000000	3.074842	3.192278	15.313460
5034.000000	3.025202	2.606657	25.294665
5035.000000	3.386783	3.697993	21.487678
5036.000000	3.261275	3.262266	12.003669
5037.000000	3.344189	3.344545	17.299639
5038.000000	3.054574	2.903322	18.891801
5039.000000	3.487485	3.255104	20.973930
5040.000000	3.401180	3.482980	11.892922
5041.000000	4.063377	4.750154	26.376385
5042.000000	3.491125	3.714539	61.485146
5043.000000	3.839177	3.718328	43.834061
5044.000000	3.489035	3.421886	39.466346
5045.000000	3.710379	3.690043	26.767928
5046.000000	3.341173	3.238810	41.682467
5047.000000	3.825394	3.964864	36.148800
5048.000000	3.393240	3.744938	19.032044
