# Idem

# Scan parameters: power 16.000000 dBm, bandwidth 1.500000 Hz
# Frequency [MHz]	avg noise	std noise	peak value
3900.000000	13.916842	12.553580	528.172363
3901.000000	7.283754	7.942407	798.010353
3902.000000	6.818464	6.927550	437.805817
3903.000000	6.147384	6.240067	832.658092
3904.000000	6.717639	7.183402	772.727440
3905.000000	7.530783	6.800230	672.165519
3906.000000	7.558756	8.885771	676.060741
3907.000000	7.114102	6.493825	421.586016
3908.000000	6.362575	6.242236	440.304511
3909.000000	7.284542	7.024568	664.748640
3910.000000	7.313079	7.919722	420.098205
3911.000000	7.300738	7.613093	489.467300
3912.000000	6.877234	6.303180	549.559394
3913.000000	7.876205	7.390990	251.498898
3914.000000	7.379261	6.982311	452.091102
3915.000000	8.756373	7.696933	432.190807
3916.000000	6.781113	6.344822	286.815407
3917.000000	7.232423	7.147798	377.571509
3918.000000	7.705700	6.924210	222.138423
3919.000000	7.350305	7.504747	354.276638
3920.000000	8.365635	8.884519	250.803649
3921.000000	6.884327	6.767721	156.508951
3922.000000	7.804150	7.923772	200.236711
3923.000000	6.552852	6.534900	334.576783
3924.000000	7.536435	7.109703	80.285826
3925.000000	6.866594	6.383797	172.896080
# 

# Scan parameters: power 16.000000 dBm, bandwidth 1.500000 Hz
# Frequency [MHz]	avg noise	std noise	peak value
3850.000000	6.986015	7.576928	1291.684474
3851.000000	6.022237	6.087060	1391.296969
3852.000000	5.781551	5.891924	830.595408
3853.000000	6.232397	6.590356	1524.030411
3854.000000	5.490827	5.456635	1318.942571
3855.000000	5.581998	5.114528	1029.691553
3856.000000	5.758681	5.772158	1614.882886
3857.000000	5.758747	5.769816	899.807696
3858.000000	5.579037	5.677997	1297.459882
3859.000000	5.345770	6.006659	1686.102925
3860.000000	5.959121	5.706083	830.442136
3861.000000	5.897007	5.701842	1285.637369
3862.000000	5.704598	5.546172	1619.257355
3863.000000	5.973939	5.688893	736.819652
3864.000000	5.972158	5.220798	1984.944271
3865.000000	5.760134	5.361439	1571.494290
3866.000000	5.786422	5.682068	823.206993
3867.000000	5.769715	5.150052	1379.759527
3868.000000	5.896203	6.872102	1301.777725
3869.000000	5.188338	4.875150	1211.078554
3870.000000	5.459650	5.448952	1415.010004
3871.000000	5.906265	5.782661	937.265603
3872.000000	5.591341	5.784748	1134.394526
3873.000000	5.559024	5.548926	1343.056490
3874.000000	5.224501	5.352439	506.787457
3875.000000	5.049712	5.209447	1217.078230
3876.000000	5.266582	4.109722	1041.130705
3877.000000	5.798828	5.810644	465.079517
3878.000000	5.823963	6.335647	1130.265837
3879.000000	5.377483	4.589571	836.942950
3880.000000	5.353499	4.912395	645.009754
3881.000000	6.035390	5.730869	801.889032
3882.000000	5.681140	6.094906	642.582280
3883.000000	5.806883	5.379164	808.983386
3884.000000	6.423950	6.821909	913.587421
3885.000000	4.622523	4.559262	349.941552
3886.000000	5.546140	5.594472	707.997283
3887.000000	6.166160	6.705169	682.366562
3888.000000	5.095323	5.347763	336.599309
3889.000000	5.501025	5.344576	826.879772
3890.000000	5.547837	5.425900	512.553214
3891.000000	5.964473	6.886734	382.793372
3892.000000	5.647712	5.336335	644.472865
3893.000000	6.484891	6.709439	410.565261
3894.000000	5.605950	6.286973	347.120275
3895.000000	5.794575	6.077997	735.850777
3896.000000	6.177634	6.312275	328.227474
3897.000000	5.110791	4.939107	518.623971
3898.000000	6.185675	6.409663	780.325890
3899.000000	6.193930	5.804761	329.644931
3900.000000	5.165561	5.103381	669.410039
3901.000000	5.651070	5.435960	783.894751
3902.000000	5.675025	5.393303	475.903282
3903.000000	5.894401	5.839137	852.194102
3904.000000	5.789242	4.944637	715.804915
3905.000000	5.757752	5.745599	546.990264
3906.000000	6.565599	6.447299	779.729381
3907.000000	5.836549	5.930697	498.975990
3908.000000	6.133196	5.773514	616.731324
3909.000000	6.319037	6.479608	645.841003
3910.000000	5.464992	5.344598	333.425833
3911.000000	6.966253	6.948079	442.185218
3912.000000	6.932132	6.802188	484.698373
3913.000000	5.425875	5.112629	186.029071
3914.000000	6.177848	6.170147	455.625717
3915.000000	6.135875	5.881271	276.718391
3916.000000	7.008393	6.674137	121.529116
3917.000000	6.034547	5.762647	267.771779
3918.000000	6.891234	6.790251	235.187337
3919.000000	7.111317	7.071348	302.137644
3920.000000	7.206546	7.540744	371.901079
3921.000000	7.316520	7.324352	167.592418
3922.000000	6.149242	6.189648	210.675771
3923.000000	6.920859	6.550427	210.786725
3924.000000	7.069128	6.835611	82.368206
3925.000000	6.298007	5.786297	234.755802
3926.000000	6.738157	6.563976	105.946590
3927.000000	6.643588	6.479587	69.783198
3928.000000	6.621492	6.651623	84.917232
3929.000000	7.066307	6.777120	102.780117
3930.000000	7.102546	6.758699	84.754540
3931.000000	7.801111	7.642287	128.760789
3932.000000	8.033096	8.244580	65.339263
3933.000000	7.554322	6.755745	91.183094
3934.000000	8.523110	8.107796	172.516653
3935.000000	7.697439	7.077069	91.143835
3936.000000	7.704417	8.067925	189.988110
3937.000000	7.179279	7.196559	125.216608
3938.000000	7.738575	7.195659	52.458584
3939.000000	6.990388	7.540965	46.413552
3940.000000	7.121836	6.898768	57.677769
3941.000000	7.626838	7.478935	39.985215
3942.000000	7.802287	8.292370	34.779293
3943.000000	7.061518	6.457462	25.501629
3944.000000	7.401969	6.648081	35.407690
3945.000000	8.353187	8.332059	35.124480
3946.000000	7.029239	7.136729	21.866272
3947.000000	6.387907	6.218191	38.035707
3948.000000	7.671449	7.198277	33.792858
3949.000000	7.723161	7.526850	25.482379
3950.000000	8.289367	9.304589	21.819736
3951.000000	8.066566	8.485868	30.654515
3952.000000	8.278894	7.678647	42.739964
3953.000000	8.249550	8.050405	21.714108
3954.000000	9.462483	9.991326	27.757086
3955.000000	8.079765	7.859979	47.924739
3956.000000	8.633141	8.833929	26.114580
3957.000000	7.216532	7.112637	35.598279
3958.000000	8.766667	8.393021	29.733674
3959.000000	7.539318	7.072624	39.256754
3960.000000	7.535753	6.785014	42.372559
3961.000000	7.478945	7.759011	42.585839
3962.000000	7.648876	8.043461	49.147078
3963.000000	8.731639	8.809336	45.227871
3964.000000	8.333597	8.653469	39.631920
3965.000000	7.119426	7.229831	42.501111
3966.000000	7.723224	6.928346	43.283048
3967.000000	7.875498	7.286983	56.084257
3968.000000	6.906923	6.228691	58.421522
3969.000000	8.255547	7.283634	94.592907
3970.000000	8.451925	7.623373	25.923972
3971.000000	7.560207	7.602754	34.771478
3972.000000	8.222481	8.109962	28.441357
3973.000000	7.213507	6.879778	44.126840
3974.000000	8.388081	8.633589	29.094999
3975.000000	7.275413	7.002790	48.788234
3976.000000	7.199840	6.629701	60.927169
3977.000000	8.088540	8.109332	36.305006
3978.000000	7.216484	6.704804	44.833305
3979.000000	7.943503	7.155646	43.523446
3980.000000	8.439701	8.857401	43.016816
3981.000000	7.580299	7.767262	87.413461
3982.000000	7.729388	8.044517	39.785203
3983.000000	7.016910	6.687603	101.409078
3984.000000	7.589225	8.328454	98.959618
3985.000000	7.334139	7.481484	104.499657
3986.000000	7.045154	7.155957	58.157959
3987.000000	7.450968	7.422031	145.263268
3988.000000	7.572814	6.989829	59.183658
3989.000000	7.747454	7.767735	170.119388
3990.000000	7.472485	7.488839	82.210263
3991.000000	8.299490	8.146739	67.889913
3992.000000	7.831238	7.661899	168.899999
3993.000000	7.756292	6.547940	135.578285
3994.000000	7.511581	7.690182	108.143564
3995.000000	8.029986	8.390511	134.112789
3996.000000	6.905860	6.504393	51.256925
3997.000000	6.832761	6.947795	208.527441
3998.000000	7.359075	7.348018	156.449301
3999.000000	7.665338	7.458368	92.906605
4000.000000	6.632051	6.536581	63.761465
4001.000000	7.269666	6.951877	90.396678
4002.000000	7.111468	7.182921	123.677439
4003.000000	7.692800	7.049358	150.573082
4004.000000	8.430805	8.912828	41.170165
4005.000000	8.787170	9.098494	129.645116
4006.000000	6.366698	5.890542	71.870625
4007.000000	6.586057	6.718760	74.123484
4008.000000	7.689624	7.859570	51.157233
4009.000000	7.127227	7.456858	31.625687
4010.000000	7.913382	7.183906	39.807447
4011.000000	7.209485	6.900753	54.140054
4012.000000	6.161166	5.801969	60.773928
4013.000000	6.576794	6.136111	36.093013
4014.000000	6.815436	7.297856	66.135308
4015.000000	6.037310	6.127239	41.621512
4016.000000	7.492286	6.997672	34.450739
4017.000000	6.398634	6.480448	84.886419
4018.000000	6.733720	6.599743	32.206310
4019.000000	6.742287	7.337075	96.491031
4020.000000	7.795488	8.447673	49.150905
4021.000000	7.155528	7.323286	50.594606
4022.000000	6.443707	6.333074	60.185931
4023.000000	8.246809	7.665237	69.584998
4024.000000	8.089834	8.427383	77.344129
4025.000000	7.777672	7.892266	86.334130
4026.000000	7.254851	6.927512	28.512689
4027.000000	6.977203	6.981033	25.963154
4028.000000	7.398375	6.695322	57.510747
4029.000000	8.572604	7.981463	45.144580
4030.000000	7.619461	7.337909	41.413121
4031.000000	7.343761	7.480794	54.842990
4032.000000	8.432091	9.239873	69.152313
4033.000000	7.794618	7.479292	67.968647
4034.000000	7.971501	8.463274	131.822450
4035.000000	7.592605	7.687173	86.407533
4036.000000	8.594947	9.251804	176.452310
4037.000000	9.289260	10.668996	165.541879
4038.000000	7.888426	8.632358	46.559510
4039.000000	8.642371	7.607903	127.227090
4040.000000	7.894258	7.547367	83.515131
4041.000000	8.645385	8.754967	35.579450
4042.000000	7.345752	7.772928	51.595579
4043.000000	8.150559	9.210820	81.914089
4044.000000	8.814196	9.150510	127.841936
4045.000000	8.891879	8.925179	110.726386
4046.000000	8.509236	8.828932	145.300556
4047.000000	8.713444	8.593746	229.570425
4048.000000	9.387260	8.659335	196.341637
4049.000000	8.720875	8.288696	151.750439
4050.000000	9.347135	9.160728	281.063747
4051.000000	9.201135	9.529949	386.311527
4052.000000	9.708991	9.611655	305.533712
4053.000000	9.815819	8.707099	404.246827
4054.000000	8.943138	9.209085	271.832287
4055.000000	8.895859	8.870553	389.300066
4056.000000	9.095331	8.411481	852.556337
4057.000000	10.191904	10.856923	406.156871
4058.000000	9.639583	9.230842	552.086147
4059.000000	9.651472	9.678169	555.954594
4060.000000	8.532563	8.998780	483.366950
4061.000000	10.613826	9.963033	519.724702
4062.000000	8.844130	9.087123	510.182989
4063.000000	10.200319	11.074580	224.603387
4064.000000	9.228715	9.864283	608.253281
4065.000000	9.483102	8.724635	465.739198
4066.000000	11.224121	10.606398	384.734236
4067.000000	9.978049	9.824150	442.154409
4068.000000	9.790157	10.218243	342.382737
4069.000000	9.846829	9.155276	164.835292
4070.000000	9.217121	7.948363	390.011601
4071.000000	11.273291	11.160792	99.943355
4072.000000	10.499753	9.359746	212.715593
4073.000000	10.905374	10.930916	446.881987
4074.000000	10.605510	9.718435	174.007515
4075.000000	10.146009	9.615780	331.313284
4076.000000	12.150673	11.910259	209.828999
4077.000000	12.886602	11.029339	252.998903
4078.000000	11.016090	11.837320	294.901812
4079.000000	11.283583	10.429196	214.924752
4080.000000	10.228283	9.718837	159.174230
4081.000000	10.394038	9.629548	290.513113
4082.000000	11.550178	12.186575	135.011539
4083.000000	11.607384	12.436050	192.946960
4084.000000	11.996078	11.264831	221.843703
4085.000000	11.437746	11.660526	159.894965
4086.000000	11.184982	10.447142	277.568231
4087.000000	10.056217	9.757759	239.999548
4088.000000	11.751756	12.044299	155.946706
4089.000000	11.469650	11.961014	137.786675
4090.000000	10.966435	11.633090	237.265934
4091.000000	10.661565	10.406682	177.357563
4092.000000	12.385076	12.620865	280.868913
4093.000000	10.144117	10.497879	252.570367
4094.000000	11.204707	11.605919	116.033108
4095.000000	10.643635	9.879769	485.425851
4096.000000	10.662972	10.850604	214.234479
4097.000000	12.176105	13.200532	210.180671
4098.000000	10.837203	11.105157	213.472766
4099.000000	10.131060	10.331287	137.981354
4100.000000	10.259623	10.572035	388.173896
4101.000000	10.918038	9.682398	244.506177
4102.000000	10.343874	10.375066	180.178787
4103.000000	10.463092	10.881658	264.546061
4104.000000	10.161527	9.966379	283.110864
4105.000000	12.121516	12.948340	169.620960
4106.000000	11.502043	10.981459	337.688934
4107.000000	11.771270	12.550885	144.080201
4108.000000	11.414534	12.064275	155.667584
4109.000000	11.350572	10.905818	287.659914
4110.000000	11.269157	11.410228	155.053806
4111.000000	11.359603	10.394543	209.889925
4112.000000	13.850158	13.435115	232.101682
4113.000000	12.329327	12.264548	91.668504
4114.000000	12.540455	11.929207	433.282747
4115.000000	9.676140	9.856258	189.438503
4116.000000	11.586510	11.630685	283.844997
4117.000000	11.676009	12.431237	299.756643
4118.000000	11.998795	11.628935	409.050050
4119.000000	12.974385	13.790306	201.592079
4120.000000	12.419345	11.870825	607.294463
4121.000000	14.337641	14.028520	279.133907
4122.000000	11.481349	10.584915	268.783590
4123.000000	11.838035	11.094107	422.546705
4124.000000	12.514613	11.275474	292.039745
4125.000000	13.933156	13.205918	624.985735
4126.000000	10.694542	10.612001	622.530565
4127.000000	11.052002	10.476739	334.141524
4128.000000	13.594434	13.771533	528.143598
4129.000000	12.633385	13.168651	365.488208
4130.000000	14.072453	14.500422	416.047626
4131.000000	13.247293	13.335525	513.789448
4132.000000	13.035897	12.477974	369.310049
4133.000000	15.303529	14.212710	185.751841
4134.000000	13.299422	12.908807	365.277988
4135.000000	12.923025	11.448053	180.124145
4136.000000	13.748398	12.254867	352.195119
4137.000000	15.031958	14.602103	427.303151
4138.000000	12.853646	13.587706	141.078295
4139.000000	14.510175	16.558772	355.772189
4140.000000	13.577507	13.314265	429.166778
4141.000000	12.801599	12.261421	254.649751
4142.000000	14.492637	14.374823	550.034122
4143.000000	13.744043	14.629233	310.155151
4144.000000	14.882476	13.546286	279.774187
4145.000000	14.223494	13.286676	349.967257
4146.000000	16.956287	17.838062	292.806948
4147.000000	14.442476	13.648419	292.368598
4148.000000	16.127654	14.787027	740.459870
4149.000000	14.917776	14.525838	426.757866
4150.000000	14.386923	13.509581	738.848369
4151.000000	16.362633	17.908828	1019.996627
4152.000000	14.670943	15.256051	597.968213
4153.000000	16.976139	18.304179	557.930168
4154.000000	16.190824	16.231856	586.668153
4155.000000	16.078990	14.438181	459.688107
4156.000000	15.779682	15.529620	320.548530
4157.000000	15.615469	13.915791	437.143761
4158.000000	14.910512	15.424911	482.947715
4159.000000	15.605136	15.552224	616.978675
4160.000000	15.508685	16.114452	534.947241
4161.000000	15.909804	15.894362	486.675535
4162.000000	16.821764	16.732335	749.015397
4163.000000	17.481966	16.719712	267.044529
4164.000000	16.707732	16.663141	684.456339
4165.000000	19.198032	18.631573	732.980930
4166.000000	18.308480	19.068737	592.155517
4167.000000	18.248287	18.591491	428.801001
4168.000000	21.495206	20.049827	489.598451
4169.000000	20.150099	22.386013	405.726695
4170.000000	18.296958	18.664516	324.805773
4171.000000	18.969191	19.930955	222.683594
4172.000000	22.297664	22.325846	575.614567
4173.000000	18.312645	18.671455	458.752821
4174.000000	18.254369	18.411999	162.388604
4175.000000	17.883717	18.740310	1007.098023
4176.000000	17.090794	16.233022	179.832703
4177.000000	20.724117	19.684163	126.010516
4178.000000	17.331291	17.270436	316.002490
4179.000000	17.913599	19.934584	166.786936
4180.000000	18.478574	17.474335	222.123877
4181.000000	18.703737	19.061549	358.384533
4182.000000	17.834464	17.703020	100.556828
4183.000000	19.157774	20.600446	121.680616
4184.000000	19.740902	19.693393	209.885097
4185.000000	20.898784	19.882287	185.140006
4186.000000	19.398504	18.498439	222.499528
4187.000000	18.792424	17.977110	331.103301
4188.000000	21.131083	21.082382	228.447190
4189.000000	22.549941	23.220923	318.861350
4190.000000	19.956202	22.347155	158.467270
4191.000000	19.778875	19.032605	120.484784
4192.000000	19.861538	18.318209	119.098800
4193.000000	19.028861	17.125232	83.857061
4194.000000	17.893126	17.171641	193.210297
4195.000000	18.601967	18.588871	167.769663
4196.000000	19.740460	20.732585	90.235270
4197.000000	19.665793	18.255337	201.982832
4198.000000	20.168110	20.031601	111.263903
4199.000000	15.580484	13.860715	182.055673
4200.000000	19.680647	18.277942	93.562800
4201.000000	16.631173	15.054557	162.000809
4202.000000	18.525153	16.060151	135.704895
4203.000000	17.925283	19.084798	170.179507
4204.000000	19.335582	18.664086	211.538088
4205.000000	17.907090	17.721727	78.348628
4206.000000	19.046752	19.425526	75.807653
4207.000000	19.584042	20.091581	247.515081
4208.000000	16.290445	16.119015	98.833148
4209.000000	16.573235	16.128812	93.348380
4210.000000	17.079545	17.594482	81.415427
4211.000000	16.294803	15.074127	127.530841
4212.000000	15.698955	14.879105	62.343550
4213.000000	16.673922	16.339282	84.263940
4214.000000	16.861787	17.100103	110.806987
4215.000000	19.014700	16.360170	59.603626
4216.000000	16.213034	15.750933	101.707799
4217.000000	16.807219	16.229122	173.227884
4218.000000	17.995793	17.524430	74.856631
4219.000000	13.448513	12.216214	69.750341
4220.000000	16.136869	14.851010	123.907759
4221.000000	15.653923	16.406423	60.205403
4222.000000	16.026092	14.986752	108.413489
4223.000000	16.178339	15.403922	118.128443
4224.000000	15.635065	15.402172	65.383902
4225.000000	16.857666	16.048678	83.398286
4226.000000	14.428956	14.509526	119.838168
4227.000000	16.550314	16.763937	66.965296
4228.000000	13.906608	13.643990	126.078280
4229.000000	12.647093	11.668701	113.713166
4230.000000	15.583810	13.718570	148.581165
4231.000000	14.380986	14.107389	100.100338
4232.000000	15.023751	15.132501	177.282446
4233.000000	15.147183	15.151972	101.649090
4234.000000	15.590147	13.657490	112.272265
4235.000000	12.998288	12.783379	56.216348
4236.000000	13.728603	12.489995	117.228998
4237.000000	13.630010	14.922341	150.058489
4238.000000	14.861416	14.758516	154.904850
4239.000000	12.751010	12.646674	95.310143
4240.000000	13.493493	12.183927	93.338470
4241.000000	13.332284	13.391840	65.084842
4242.000000	14.366666	12.851386	64.852610
4243.000000	12.258739	13.539622	62.244348
4244.000000	13.941049	13.760055	154.051650
4245.000000	13.526045	13.901269	87.196254
4246.000000	14.605481	15.907369	77.763372
4247.000000	14.079078	12.774637	55.318344
4248.000000	14.678155	14.297529	56.728838
4249.000000	13.273314	13.566195	81.215425
4250.000000	13.845771	15.930851	83.958007
4251.000000	13.872140	14.841317	87.352623
4252.000000	14.107419	14.419163	86.513892
4253.000000	14.255751	13.399115	122.879270
4254.000000	11.671190	11.916966	81.676892
4255.000000	13.590579	14.826952	67.096426
4256.000000	13.616741	12.345634	90.984179
4257.000000	14.198999	13.841163	70.689013
4258.000000	13.766144	12.535639	71.696592
4259.000000	13.791965	13.414503	71.152140
4260.000000	13.037936	12.909358	144.923998
4261.000000	11.812539	10.821397	60.947117
4262.000000	12.399639	13.863281	99.696737
4263.000000	11.724934	11.946147	86.105267
4264.000000	13.296164	12.752542	132.621201
4265.000000	12.801771	14.585205	53.797800
4266.000000	13.342022	14.548867	63.838411
4267.000000	12.370581	11.899744	99.069807
4268.000000	12.755861	11.931153	116.377082
4269.000000	13.493920	14.166163	90.769548
4270.000000	12.779379	11.934039	53.382323
4271.000000	13.830653	14.950580	101.194218
4272.000000	13.220115	13.351950	125.280703
4273.000000	13.273250	15.534219	77.325942
4274.000000	12.422327	12.632968	46.986355
4275.000000	12.363374	13.331623	50.345019
4276.000000	12.928833	12.085552	57.322925
4277.000000	13.693214	12.174595	50.700496
4278.000000	12.785895	12.508152	53.071435
4279.000000	12.155021	12.430047	93.365338
4280.000000	13.410127	13.215589	58.916400
4281.000000	11.110186	11.206686	115.271906
4282.000000	13.985279	13.408284	62.942163
4283.000000	11.334810	10.999951	135.771391
4284.000000	13.307341	12.700401	132.204384
4285.000000	13.659835	13.376916	69.949289
4286.000000	12.906068	11.910489	78.857005
4287.000000	15.464045	15.578078	79.132978
4288.000000	12.637779	12.371198	51.128893
4289.000000	12.086696	12.148466	112.185966
4290.000000	15.077584	15.387942	97.479643
4291.000000	13.363387	12.271261	86.713781
4292.000000	12.832023	12.479844	86.632478
4293.000000	12.215864	11.927289	77.961921
4294.000000	12.219925	11.880740	48.418910
4295.000000	12.206623	12.497794	43.322755
4296.000000	12.847450	12.196940	57.706074
4297.000000	13.761526	13.940217	92.028373
4298.000000	13.268379	14.198645	78.490836
4299.000000	13.558520	13.130980	40.483487
4300.000000	12.330549	11.564080	82.126158
4301.000000	12.572474	12.600323	93.724535
4302.000000	12.887539	12.408550	79.063536
4303.000000	11.910321	10.894400	41.577951
4304.000000	13.957163	13.315842	40.461765
4305.000000	11.894242	12.376556	77.873476
4306.000000	13.289729	11.815866	75.554619
4307.000000	12.819686	12.037348	48.543606
4308.000000	12.981814	13.064906	64.965717
4309.000000	12.123528	12.549703	82.911263
4310.000000	13.021698	12.928176	60.822053
4311.000000	12.749579	12.145924	49.784359
4312.000000	13.473734	13.769650	90.079501
4313.000000	15.751272	16.677024	58.254139
4314.000000	13.038685	13.139500	56.419517
4315.000000	15.476651	13.724826	98.803944
4316.000000	13.609631	12.235247	47.951564
4317.000000	12.854767	11.469831	62.932952
4318.000000	15.083899	15.981220	76.599424
4319.000000	14.296155	15.501606	48.956638
4320.000000	12.586152	11.663341	62.753115
4321.000000	11.935795	11.313912	47.106100
4322.000000	13.483310	11.985838	61.146876
4323.000000	13.467959	12.664820	57.787751
4324.000000	14.910469	13.930101	44.463274
4325.000000	11.970879	13.573273	42.915126
4326.000000	15.756293	16.625178	139.645279
4327.000000	14.426226	14.688942	53.102382
4328.000000	12.933488	12.736428	57.736293
4329.000000	15.788832	16.864310	71.164963
4330.000000	13.915523	15.878681	75.778952
4331.000000	13.286011	12.595877	112.601719
4332.000000	15.131897	14.610994	63.847865
4333.000000	15.217541	14.696961	85.700500
4334.000000	14.012137	15.426527	162.657447
4335.000000	14.844660	16.158560	61.663656
4336.000000	13.897246	13.547981	133.656902
4337.000000	14.731469	16.221646	77.333329
4338.000000	14.433124	14.322676	116.996588
4339.000000	13.182342	12.494474	61.722483
4340.000000	14.916839	13.885051	135.284473
4341.000000	13.834752	13.715453	59.164468
4342.000000	13.434497	13.008303	76.622871
4343.000000	13.076080	13.792782	274.321883
4344.000000	13.412369	13.237191	92.976238
4345.000000	14.380402	13.948656	154.340771
4346.000000	15.347719	14.669763	64.149360
4347.000000	15.040547	15.259058	132.282409
4348.000000	12.596348	13.723127	83.144435
4349.000000	14.489509	14.606448	133.320336
4350.000000	13.768063	12.893017	74.046024
4351.000000	14.212862	14.138669	95.053436
4352.000000	14.942448	13.189750	69.530310
4353.000000	14.421300	15.610605	136.731377
4354.000000	15.091378	14.306274	67.515804
4355.000000	14.987222	13.719957	71.518540
4356.000000	14.998634	14.328893	144.506835
4357.000000	14.599961	13.309831	104.059369
4358.000000	13.600686	15.283419	51.867070
4359.000000	14.065470	14.015534	51.776215
4360.000000	15.353257	13.764023	47.505780
4361.000000	13.431592	13.284051	103.573104
4362.000000	14.318497	14.735785	56.768823
4363.000000	13.478476	13.557928	45.335907
4364.000000	13.758030	11.860563	56.947400
4365.000000	12.506004	11.909978	53.952806
4366.000000	13.804975	14.968230	70.320906
4367.000000	12.175150	12.088025	50.684305
4368.000000	12.690730	12.749915	84.407805
4369.000000	13.109083	12.978271	79.891852
4370.000000	13.781521	13.435447	60.086036
4371.000000	13.924796	12.700543	62.966503
4372.000000	13.471048	12.799418	51.148855
4373.000000	13.470772	13.142311	63.166733
4374.000000	12.831271	10.570406	65.461085
4375.000000	12.595686	14.133906	57.086146
4376.000000	12.450984	13.373155	48.357722
4377.000000	13.208443	12.830989	64.862921
4378.000000	12.920679	12.492389	62.700633
4379.000000	12.398412	12.604909	58.141898
4380.000000	12.296891	12.267318	60.605831
4381.000000	12.826330	11.774581	69.716428
4382.000000	12.035920	11.307168	93.461285
4383.000000	13.888843	12.357857	46.725148
4384.000000	13.665568	14.049222	83.563175
4385.000000	13.820742	14.707718	68.190569
4386.000000	13.226566	13.230914	67.795589
4387.000000	12.074610	11.455267	63.565925
4388.000000	12.434339	12.995855	43.633199
4389.000000	13.699886	13.626609	47.794713
4390.000000	13.347392	12.796912	40.722230
4391.000000	13.017598	13.420931	49.117416
4392.000000	13.265885	14.493181	47.573132
4393.000000	12.852609	12.562914	76.065030
4394.000000	11.042028	10.938373	62.331407
4395.000000	13.605162	14.370443	45.134412
4396.000000	13.179744	13.580562	89.570250
4397.000000	11.282962	10.888191	51.149467
4398.000000	13.857144	13.175917	50.994968
4399.000000	11.985590	13.191189	49.444881
4400.000000	13.428635	13.979170	103.475155
4401.000000	11.359999	11.403993	65.776144
4402.000000	13.287855	12.670964	89.085081
4403.000000	12.690001	11.532899	109.445244
4404.000000	13.533323	14.705112	64.519212
4405.000000	13.358618	12.884199	53.535982
4406.000000	12.428035	12.238043	71.613069
4407.000000	12.281594	12.374463	111.441455
4408.000000	12.811594	11.893490	44.271381
4409.000000	13.016424	13.229420	63.645120
4410.000000	11.554912	11.258117	94.344205
4411.000000	12.375109	13.315527	61.139796
4412.000000	12.927023	12.062323	63.418674
4413.000000	12.799941	13.879457	46.414226
4414.000000	13.071860	12.118634	55.264802
4415.000000	12.654798	13.189132	52.105970
4416.000000	13.558154	12.185765	46.828114
4417.000000	11.414017	10.545456	76.959060
4418.000000	13.758023	13.618708	59.896200
4419.000000	13.426313	13.916790	61.523087
4420.000000	11.691185	12.169828	30.931257
4421.000000	13.977408	13.672598	59.254205
4422.000000	14.057194	14.938390	67.217115
4423.000000	13.288298	13.579435	71.504903
4424.000000	13.596104	13.761929	60.907606
4425.000000	12.908550	13.186041	59.065380
4426.000000	13.327154	11.237327	58.354141
4427.000000	12.908744	12.683309	37.866054
4428.000000	12.222166	13.756752	42.954805
4429.000000	13.012288	13.177929	67.579498
4430.000000	13.500971	17.524091	44.175568
4431.000000	12.633925	14.511528	56.847344
4432.000000	13.150599	11.962957	52.209447
4433.000000	11.489333	11.875511	64.437550
4434.000000	12.250402	12.519182	60.054241
4435.000000	14.794823	14.464154	62.785367
4436.000000	14.506933	14.256812	62.930446
4437.000000	12.072802	14.312342	67.634481
4438.000000	12.604283	12.084661	68.460556
4439.000000	12.284959	13.309333	77.037860
4440.000000	13.101110	13.070866	41.066354
4441.000000	10.903164	9.962490	61.295828
4442.000000	13.560675	12.984543	63.229079
4443.000000	11.776063	11.648111	82.947118
4444.000000	12.379137	12.127407	39.121268
4445.000000	12.517894	11.398347	72.225146
4446.000000	12.137812	11.660471	69.176840
4447.000000	11.372564	10.991359	90.259700
4448.000000	14.092545	15.159515	42.943931
4449.000000	13.859329	13.415813	117.395992
4450.000000	12.976077	12.922008	68.869027
4451.000000	11.250274	9.983096	44.813174
4452.000000	12.630702	12.452523	81.131516
4453.000000	12.051079	10.725063	45.114351
4454.000000	12.919590	12.396266	55.961061
4455.000000	11.384079	12.566033	50.629265
4456.000000	13.016377	12.309822	40.744452
4457.000000	12.225681	12.328182	70.287973
4458.000000	13.948311	14.690523	88.243188
4459.000000	11.308384	12.593079	74.276173
4460.000000	13.245210	13.047607	63.137905
4461.000000	11.978933	11.541954	43.713119
4462.000000	11.519242	11.394982	83.035844
4463.000000	12.522852	12.483456	50.917029
4464.000000	12.406699	11.463374	43.258909
4465.000000	12.470764	11.926858	57.704324
4466.000000	14.174598	16.701735	68.460591
4467.000000	12.475881	10.867528	76.054331
4468.000000	13.007768	13.765020	34.419803
4469.000000	13.947509	14.682728	58.710934
4470.000000	13.124933	12.556532	33.149263
4471.000000	13.778471	12.661557	78.263469
4472.000000	13.803630	12.813037	48.239228
4473.000000	13.534569	12.041165	56.425915
4474.000000	14.748923	13.502665	53.016997
4475.000000	11.781616	12.858235	90.609844
4476.000000	14.878809	13.975487	68.047329
4477.000000	13.728713	13.478810	57.125825
4478.000000	14.532427	14.312392	48.861507
4479.000000	12.118322	12.465839	63.043818
4480.000000	14.031705	14.559253	81.585415
4481.000000	14.690319	14.454760	97.047836
4482.000000	14.531098	13.221212	61.205364
4483.000000	13.052120	12.634046	81.011263
4484.000000	12.413725	12.079328	60.785842
4485.000000	16.098536	16.991706	62.776445
4486.000000	15.750174	16.797684	54.927864
4487.000000	14.670202	17.119636	88.978962
4488.000000	15.096850	16.029614	50.576105
4489.000000	15.347151	13.403999	54.300352
4490.000000	14.691489	14.643357	76.032918
4491.000000	15.452543	16.159189	83.426104
4492.000000	16.160230	16.754631	59.499358
4493.000000	15.192739	13.775443	65.431036
4494.000000	16.035119	15.151190	75.546250
4495.000000	14.659710	13.705453	59.196373
4496.000000	15.940831	17.629222	121.359550
4497.000000	17.249380	17.637972	118.333944
4498.000000	14.124222	15.206295	65.733673
4499.000000	16.592615	16.527101	141.181569
4500.000000	14.882381	13.752287	77.783944
4501.000000	14.571636	15.415563	101.482965
4502.000000	14.827324	14.482445	64.029594
4503.000000	14.750795	16.321980	91.387525
4504.000000	15.407399	16.245377	108.262265
4505.000000	17.438780	16.812328	56.089412
4506.000000	15.148657	15.201595	68.032286
4507.000000	15.525714	14.990883	73.101345
4508.000000	15.538485	14.637510	94.710548
4509.000000	15.627379	14.602296	133.535203
4510.000000	18.531760	18.133199	81.122359
4511.000000	16.075855	16.112361	164.273999
4512.000000	16.877025	17.856179	111.853653
4513.000000	19.066751	17.143999	97.701901
4514.000000	17.563501	15.998948	77.828012
4515.000000	18.739664	17.573709	122.561198
4516.000000	18.149890	17.760665	123.155902
4517.000000	19.681533	18.431025	119.697413
4518.000000	16.488476	15.933553	137.760981
4519.000000	16.488442	17.654032	97.038915
4520.000000	16.556801	17.708357	102.947002
4521.000000	16.440807	15.706522	57.044357
4522.000000	18.579974	18.255927	191.277386
4523.000000	17.484974	17.002788	120.347475
4524.000000	19.080346	19.660144	122.296550
4525.000000	18.066172	16.208447	78.524798
4526.000000	17.558596	17.738998	157.376662
4527.000000	17.328872	18.134562	93.386961
4528.000000	16.756679	16.834513	210.369799
4529.000000	19.956480	20.116359	164.709111
4530.000000	19.555891	18.534035	126.075254
4531.000000	16.332950	17.136739	173.615678
4532.000000	18.509578	20.194307	264.904920
4533.000000	18.319865	19.661566	104.168560
4534.000000	19.161354	18.533387	98.622714
4535.000000	15.912137	18.261618	125.411097
4536.000000	19.956696	19.633360	121.554357
4537.000000	17.063431	17.126821	142.075085
4538.000000	20.423955	21.241627	117.296335
4539.000000	20.343607	20.355721	113.726430
4540.000000	21.212312	20.670067	93.753600
4541.000000	16.841573	16.362221	108.235499
4542.000000	18.906917	22.404800	171.321052
4543.000000	20.527200	20.662502	162.239950
4544.000000	19.987606	19.865248	278.767850
4545.000000	18.344771	18.726600	168.223416
4546.000000	18.858209	18.855739	138.920605
4547.000000	20.027527	19.374262	88.956474
4548.000000	20.240649	19.832233	91.846914
4549.000000	20.109942	21.093357	202.637570
4550.000000	21.398911	22.437992	105.976755
4551.000000	20.931607	21.287017	87.216261
4552.000000	20.747546	18.568956	132.040034
4553.000000	21.281864	22.265512	201.092529
4554.000000	17.855378	19.757714	116.337474
4555.000000	20.133151	19.510098	77.994382
4556.000000	22.297418	21.967966	107.626594
4557.000000	23.041381	21.492436	78.805743
4558.000000	21.435197	19.174629	89.608433
4559.000000	21.113487	20.684400	80.775326
4560.000000	19.572461	18.612148	151.935659
4561.000000	23.302672	22.347262	99.578688
4562.000000	21.939941	24.020427	76.139672
4563.000000	23.578728	23.484910	87.136557
4564.000000	26.599129	29.605717	89.137009
4565.000000	21.545180	21.574225	99.119729
4566.000000	24.063886	24.287255	120.953662
4567.000000	24.255327	20.853687	94.552624
4568.000000	23.818890	23.353101	104.165176
4569.000000	25.025508	23.789241	122.900775
4570.000000	21.037826	20.215504	120.632923
4571.000000	22.264333	21.557331	72.024575
4572.000000	23.606429	26.051888	80.834927
4573.000000	24.583760	23.138254	85.086293
4574.000000	24.519444	29.317875	207.680240
4575.000000	25.387131	23.799831	164.489545
4576.000000	23.803483	23.966619	203.616291
4577.000000	26.081824	23.527569	101.721825
4578.000000	26.632714	25.891297	126.223203
4579.000000	25.840299	27.226957	144.780350
4580.000000	22.548114	23.724313	178.671545
4581.000000	25.708174	26.484722	130.637742
4582.000000	25.982345	26.150634	114.588241
4583.000000	30.385097	31.467584	121.367651
4584.000000	24.625274	22.694348	122.846303
4585.000000	25.109309	25.711471	196.122870
4586.000000	26.441771	25.519062	157.820357
4587.000000	28.120676	28.753581	141.765589
4588.000000	30.486847	32.364625	134.587163
4589.000000	27.395150	26.673580	103.086011
4590.000000	26.078539	28.690958	141.305575
4591.000000	22.945335	22.183658	91.307558
4592.000000	27.563196	27.016010	176.249314
4593.000000	28.854617	28.498293	148.238926
4594.000000	28.526000	26.869608	92.220256
4595.000000	30.520759	31.191898	184.533649
4596.000000	26.835809	26.345480	97.295314
4597.000000	27.817031	27.726692	131.337724
4598.000000	29.258224	26.448790	122.282522
4599.000000	28.674107	29.877679	98.644696
4600.000000	28.140564	28.545081	145.445032
4601.000000	27.203106	25.847448	151.129717
4602.000000	33.234653	36.733802	142.421449
4603.000000	29.278994	26.395584	121.298041
4604.000000	32.311433	33.185913	164.544273
4605.000000	30.645617	37.630266	116.141715
4606.000000	32.104659	29.348176	166.281722
4607.000000	33.641647	31.637135	144.699476
4608.000000	29.333835	26.384398	152.585031
4609.000000	26.947661	27.101365	142.495041
4610.000000	30.386013	28.292249	169.178982
4611.000000	32.358967	33.423969	242.067942
4612.000000	30.084345	30.381407	298.399870
4613.000000	30.458971	30.606173	133.029423
4614.000000	37.840657	37.749896	144.953391
4615.000000	33.053165	30.826942	323.939295
4616.000000	33.273495	34.564600	243.694146
4617.000000	35.897629	35.190459	179.352392
4618.000000	29.752658	31.500267	232.775248
4619.000000	35.163171	37.189975	125.712907
4620.000000	36.193726	32.593937	148.755865
4621.000000	36.873944	37.419671	134.932931
4622.000000	33.720954	36.341612	309.342558
4623.000000	34.602705	32.093663	164.868415
4624.000000	31.126926	33.151542	138.403111
4625.000000	34.885694	35.114391	194.071058
4626.000000	29.867992	31.146096	200.463375
4627.000000	37.204285	37.012084	161.781497
4628.000000	37.010350	36.204564	248.132936
4629.000000	35.917414	36.159492	211.818500
4630.000000	37.178422	35.982658	179.412809
4631.000000	36.683064	32.842972	471.012043
4632.000000	38.052531	40.676315	124.114565
4633.000000	35.107034	36.239991	166.362833
4634.000000	39.529456	40.476198	135.229742
4635.000000	33.002717	32.035142	101.565614
4636.000000	39.869183	39.281095	159.704418
4637.000000	36.509475	37.755749	145.049110
4638.000000	38.643371	36.197017	221.207074
4639.000000	36.643070	38.827195	320.418659
4640.000000	36.044605	31.820784	359.654044
4641.000000	37.975115	41.798698	261.921523
4642.000000	38.804027	45.442728	136.559652
4643.000000	35.234488	37.893290	242.048230
4644.000000	35.439309	33.079247	206.331139
4645.000000	36.011398	34.410424	171.389927
4646.000000	38.119009	37.084163	231.060354
4647.000000	39.669543	35.754914	185.786268
4648.000000	35.485403	32.012380	268.084109
4649.000000	39.676036	44.848634	168.345786
4650.000000	36.134469	34.793614	183.272088
4651.000000	39.919896	39.304569	205.914935
4652.000000	45.226647	44.493749	182.871333
4653.000000	44.516618	47.017440	249.603219
4654.000000	36.688728	34.509422	170.980999
4655.000000	40.706312	38.938964	132.412753
4656.000000	41.007231	39.406695	124.283382
4657.000000	41.776067	41.281404	309.806571
4658.000000	39.843151	41.054302	160.331098
4659.000000	42.505223	56.465447	197.807416
4660.000000	41.526997	40.622859	161.240034
4661.000000	42.727307	43.660388	253.967417
4662.000000	40.726203	39.366498	261.877697
4663.000000	49.492628	46.448351	214.928662
4664.000000	42.710795	48.505962	184.126723
4665.000000	42.549083	40.771368	157.624614
4666.000000	41.159368	39.358705	172.769322
4667.000000	43.171426	45.537340	127.139344
4668.000000	45.202844	44.620313	305.568098
4669.000000	43.426230	47.185927	210.964589
4670.000000	41.207409	34.504921	179.605118
4671.000000	44.996183	45.677820	114.054151
4672.000000	45.566338	43.115370	183.474561
4673.000000	45.881896	44.867338	135.323756
4674.000000	42.946486	40.651048	250.421546
4675.000000	47.105828	46.917889	191.708061
4676.000000	48.140821	50.397935	180.757715
4677.000000	51.279245	56.163535	251.871331
4678.000000	46.809462	44.579122	278.219342
4679.000000	43.566348	40.310822	259.681018
4680.000000	44.279696	43.075408	409.131019
4681.000000	42.682860	42.519933	385.887219
4682.000000	39.094706	35.584763	212.717026
4683.000000	48.675281	44.797756	320.723767
4684.000000	48.067395	43.413473	189.606342
4685.000000	47.827655	47.578328	224.835808
4686.000000	46.943127	44.742757	251.699630
4687.000000	47.339359	43.893896	140.705239
4688.000000	44.469868	40.131249	393.853821
4689.000000	48.090292	42.421052	438.628174
4690.000000	42.939073	40.811612	383.258840
4691.000000	44.804083	42.254136	198.431572
4692.000000	46.470281	47.426628	217.739785
4693.000000	40.054857	42.422990	244.830952
4694.000000	45.226133	45.792306	262.616405
4695.000000	53.588941	54.292111	367.508308
4696.000000	53.493988	51.854604	256.804786
4697.000000	43.979886	43.570049	298.531200
4698.000000	45.437196	44.790864	398.953618
4699.000000	41.582983	38.482684	265.554872
4700.000000	37.058843	33.571773	461.224679
4701.000000	47.959451	49.920597	314.170801
4702.000000	43.846738	39.774256	358.739263
4703.000000	44.475095	43.714770	162.528616
4704.000000	42.246064	42.485354	479.945528
4705.000000	46.857653	47.884920	258.920274
4706.000000	47.799386	52.800404	261.030272
4707.000000	40.670227	38.275232	377.239175
4708.000000	48.909636	50.434492	582.667845
4709.000000	42.880716	39.049261	298.851964
4710.000000	42.723648	39.801813	287.854502
4711.000000	42.281762	38.912732	868.009669
4712.000000	44.645738	41.661790	532.828602
4713.000000	40.353225	41.192283	387.669815
4714.000000	41.227615	48.732638	423.281388
4715.000000	37.967956	37.984791	614.359531
4716.000000	41.657456	42.696988	340.246146
4717.000000	42.051244	40.243609	588.742393
4718.000000	37.112466	34.334717	391.759779
4719.000000	42.536260	42.694820	281.069384
4720.000000	39.271277	36.006472	695.067996
4721.000000	42.769395	41.415461	265.582247
4722.000000	41.995588	40.969275	516.448708
4723.000000	39.423291	37.243637	711.135910
4724.000000	37.657082	35.637953	222.986234
4725.000000	36.353635	34.913563	626.370037
4726.000000	35.647693	33.444894	378.270765
4727.000000	36.212995	34.843172	332.575194
4728.000000	34.888706	34.573713	653.010837
4729.000000	38.415235	38.124413	422.303625
4730.000000	38.848186	37.341724	457.783239
4731.000000	39.485814	40.381513	524.692989
4732.000000	36.517383	38.225498	317.522978
4733.000000	37.406075	34.345014	382.077681
4734.000000	37.296149	34.674994	801.834011
4735.000000	35.117056	38.910770	115.115419
4736.000000	38.346217	36.286820	426.807986
4737.000000	32.538743	32.163418	454.594188
4738.000000	36.729529	41.563720	113.914827
4739.000000	36.733007	35.377526	807.894294
4740.000000	33.262412	34.509656	239.466931
4741.000000	34.663093	38.251835	248.256520
4742.000000	30.044571	33.212008	814.253380
4743.000000	33.351419	35.891518	226.849197
4744.000000	31.141377	32.145908	431.345629
4745.000000	30.686227	30.696888	273.816762
4746.000000	29.392261	30.063582	238.611926
4747.000000	31.025604	30.910871	220.817651
4748.000000	28.969853	29.241636	442.080878
4749.000000	30.193476	30.807383	169.674886
4750.000000	33.955151	35.111277	203.550650
4751.000000	30.358641	31.449375	179.612312
4752.000000	27.541419	25.806623	159.650251
4753.000000	28.666779	29.678375	249.100621
4754.000000	28.913885	29.453391	223.368721
4755.000000	28.951184	26.709038	118.109690
4756.000000	28.860290	26.417749	159.123038
4757.000000	29.703846	27.624148	156.045709
4758.000000	31.008145	33.764081	133.228120
4759.000000	31.305804	34.368553	99.797577
4760.000000	31.999933	32.929147	121.023824
4761.000000	27.433430	26.951883	143.315698
4762.000000	26.422155	25.284547	147.348960
4763.000000	28.321844	31.518296	144.111468
4764.000000	26.866768	27.669015	95.411607
4765.000000	28.541313	29.305616	284.918419
4766.000000	24.460704	24.990989	93.886205
4767.000000	27.442300	28.499952	165.268160
4768.000000	25.771261	24.328452	179.083586
4769.000000	26.563123	27.876473	255.004820
4770.000000	26.669272	26.002811	248.210622
4771.000000	26.322068	24.253822	208.965038
4772.000000	27.200338	27.439950	108.496777
4773.000000	25.975610	30.666698	161.411724
4774.000000	25.617816	25.237066	148.657109
4775.000000	22.741484	22.847818	120.979975
4776.000000	24.558522	22.703016	145.892598
4777.000000	25.839270	25.294892	122.792598
4778.000000	24.067878	26.070618	108.740423
4779.000000	25.078953	25.798973	164.476262
4780.000000	25.239724	26.415651	124.460676
4781.000000	23.276951	22.130109	114.243587
4782.000000	24.719064	24.132362	89.853529
4783.000000	26.290744	25.917755	99.645617
4784.000000	25.662362	24.226528	148.391572
4785.000000	26.110092	28.613969	240.690786
4786.000000	23.364327	23.771713	110.312886
4787.000000	25.338582	25.266161	97.564221
4788.000000	24.035763	22.945317	196.839917
4789.000000	23.606105	25.350320	117.804400
4790.000000	24.202771	21.430858	183.395578
4791.000000	24.077153	24.399710	118.423660
4792.000000	20.973250	22.369485	243.829084
4793.000000	22.469699	25.758750	133.683533
4794.000000	21.278874	21.461211	200.883115
4795.000000	26.446965	25.159168	106.713128
4796.000000	21.020767	19.474601	102.741179
4797.000000	23.434745	23.306790	139.983260
4798.000000	24.221809	21.310477	119.819388
4799.000000	19.618727	20.840432	123.053823
4800.000000	24.371739	23.840599	179.804499
4801.000000	23.836228	22.516963	123.844518
4802.000000	22.280946	21.487320	148.008887
4803.000000	21.811009	22.445207	122.259611
4804.000000	22.571900	24.083515	203.374730
4805.000000	23.132186	24.466279	102.902903
4806.000000	20.585523	20.944046	182.652962
4807.000000	20.522605	19.972133	126.773973
4808.000000	22.623833	21.010559	69.877745
4809.000000	21.451056	20.911162	325.560344
4810.000000	20.293634	19.582773	173.303604
4811.000000	21.477798	20.401641	134.223781
4812.000000	21.763929	21.048445	256.244768
4813.000000	21.912677	21.810303	104.505439
4814.000000	20.315472	21.844507	144.951049
4815.000000	20.219285	20.891174	335.679624
4816.000000	20.803789	21.750040	111.221735
4817.000000	21.832513	24.741057	227.082611
4818.000000	20.227669	20.253757	264.901240
4819.000000	20.511624	18.932570	166.679334
4820.000000	21.879333	21.007220	239.569966
4821.000000	22.194986	20.899135	159.222108
4822.000000	17.373771	16.546433	190.455897
4823.000000	19.847676	17.223321	175.950337
4824.000000	20.907832	20.646634	145.443172
4825.000000	16.937963	16.822837	233.746720
4826.000000	21.024054	19.656018	80.893817
4827.000000	18.400216	20.020791	205.755581
4828.000000	20.905634	19.192085	569.361974
4829.000000	21.569508	21.188477	453.172255
4830.000000	21.397589	19.370018	205.001923
4831.000000	20.884990	20.720776	571.960715
4832.000000	20.276436	21.614226	605.192789
4833.000000	18.985692	18.767261	341.195523
4834.000000	18.087296	16.045347	488.753610
4835.000000	19.683107	18.423027	313.229907
4836.000000	18.855336	18.016388	327.280560
4837.000000	17.671806	17.275107	493.565912
4838.000000	20.462244	20.097778	144.221754
4839.000000	22.216870	20.663436	417.468298
4840.000000	15.477645	15.199371	571.103036
4841.000000	18.313596	18.996107	254.418893
4842.000000	18.963983	21.543554	338.353768
4843.000000	19.423297	18.158408	276.559386
4844.000000	17.661746	17.049656	247.400712
4845.000000	19.098470	17.505931	488.457020
4846.000000	17.223608	16.206828	234.141934
4847.000000	17.494962	18.058629	359.220397
4848.000000	17.538356	17.222466	333.134023
4849.000000	18.717427	18.141742	138.810231
4850.000000	20.248702	19.430203	340.084238
4851.000000	18.456179	18.046262	363.838582
4852.000000	18.388479	17.631244	308.832247
4853.000000	16.580869	15.450718	299.227886
4854.000000	16.989544	16.928428	381.533194
4855.000000	19.550936	21.492735	206.374190
4856.000000	18.478496	17.025630	425.942430
4857.000000	16.136224	16.544588	153.948403
4858.000000	17.628861	15.192190	227.395827
4859.000000	18.254657	17.417941	264.510378
4860.000000	18.244007	19.571391	440.660406
4861.000000	18.686859	18.445983	450.844903
4862.000000	17.336308	17.394787	498.329841
4863.000000	18.101401	18.299569	244.227810
4864.000000	16.866644	14.109804	295.118387
4865.000000	17.366527	17.505510	297.867799
4866.000000	17.404305	17.843320	127.656596
4867.000000	19.615594	20.698688	315.038253
4868.000000	17.914389	19.125359	383.876923
4869.000000	18.964814	19.206605	160.167517
4870.000000	15.734272	16.444175	433.117911
4871.000000	18.194260	20.162105	358.049134
4872.000000	17.337155	17.126842	417.865189
4873.000000	17.253910	17.045604	434.923091
4874.000000	17.586684	16.096600	217.717490
4875.000000	18.370410	18.745685	240.008525
4876.000000	18.077621	16.974555	663.805544
4877.000000	18.235502	18.332577	195.947451
4878.000000	16.102627	15.133437	202.081791
4879.000000	18.007332	16.624164	322.954409
4880.000000	18.670776	17.885666	130.270030
4881.000000	16.335582	15.740855	406.073179
4882.000000	14.810448	13.303381	171.303234
4883.000000	15.635793	14.895826	293.780587
4884.000000	15.648020	14.427989	426.430561
4885.000000	15.701708	16.816076	280.721745
4886.000000	16.681432	16.172687	210.518355
4887.000000	14.480275	14.570038	336.022083
4888.000000	16.128420	15.078745	144.443058
4889.000000	15.493207	14.463707	271.064641
4890.000000	18.091910	18.287865	147.293219
4891.000000	14.565069	15.225831	144.572553
4892.000000	15.160626	16.905550	192.525069
4893.000000	15.596517	14.897907	217.238513
4894.000000	15.738167	16.741882	205.159836
4895.000000	17.224124	18.735804	236.836311
4896.000000	13.458763	13.965016	212.136924
4897.000000	17.829125	17.965323	217.103823
4898.000000	16.901908	18.179598	422.293769
4899.000000	17.181823	19.614790	243.348611
4900.000000	16.192677	17.553348	198.345581
4901.000000	15.230255	16.340404	251.400629
4902.000000	14.472302	14.260002	159.028079
4903.000000	15.165252	15.283726	268.528367
4904.000000	16.730164	15.766775	307.841067
4905.000000	16.450794	16.584072	205.977366
4906.000000	15.781782	17.595649	416.696028
4907.000000	17.098235	16.725585	187.347814
4908.000000	14.903930	16.399063	248.874690
4909.000000	16.083005	16.657593	336.491051
4910.000000	15.329696	15.590253	215.438745
4911.000000	17.038417	15.961508	385.379587
4912.000000	17.279061	17.527209	247.031453
4913.000000	17.290724	16.020252	183.477799
4914.000000	14.628071	13.927880	375.112082
4915.000000	17.795851	17.878961	137.329202
4916.000000	16.816486	15.267755	84.552802
4917.000000	17.439262	16.940759	158.217536
4918.000000	16.863314	18.414536	168.338882
4919.000000	17.530501	18.143912	161.964703
4920.000000	16.773409	15.892152	343.970855
4921.000000	16.755460	15.991741	100.330268
4922.000000	17.557858	14.955673	199.377933
4923.000000	17.800157	19.054352	346.216457
4924.000000	18.503699	18.705745	169.161581
4925.000000	16.966163	17.640778	104.913821
4926.000000	18.204023	15.864984	413.785100
4927.000000	18.040738	15.878428	121.242307
4928.000000	18.111397	16.602387	280.834433
4929.000000	15.354913	15.955991	267.707589
4930.000000	16.555275	15.975282	148.607408
4931.000000	19.063492	20.613620	382.902609
4932.000000	20.129192	17.362926	119.874972
4933.000000	17.451720	16.965894	166.609878
4934.000000	18.401246	18.902149	109.048925
4935.000000	19.140290	22.936862	83.644989
4936.000000	18.632934	17.845507	147.462529
4937.000000	18.016290	16.200441	111.399155
4938.000000	20.447784	20.877328	156.757030
4939.000000	19.106342	18.260894	99.022850
4940.000000	18.972464	17.154073	312.131145
4941.000000	20.269260	20.108195	188.440849
4942.000000	20.256978	21.149306	141.815802
4943.000000	23.556954	21.858071	89.199481
4944.000000	20.888703	22.589892	209.958014
4945.000000	20.353612	19.993658	128.580602
4946.000000	20.288061	21.175278	146.742020
4947.000000	21.693469	20.020313	178.975332
4948.000000	19.179883	20.740005	211.525525
4949.000000	22.302909	23.185535	116.883775
4950.000000	21.334588	20.694234	143.147713
4951.000000	21.774197	21.931041	128.453853
4952.000000	21.795592	21.176487	105.085512
4953.000000	23.051089	23.487363	89.355084
4954.000000	22.492920	21.957709	159.128047
4955.000000	21.238475	21.239535	88.080614
4956.000000	21.038064	22.873611	102.204940
4957.000000	24.569674	27.289771	133.473257
4958.000000	20.974019	19.920850	90.190385
4959.000000	24.266652	22.888470	217.516242
4960.000000	23.768659	28.912032	124.302118
4961.000000	24.027534	23.599967	101.835299
4962.000000	25.585463	23.178668	113.273610
4963.000000	28.103789	29.773714	160.086067
4964.000000	23.602313	22.985295	106.523804
4965.000000	25.737139	26.239770	213.693755
4966.000000	20.586789	20.732044	182.895252
4967.000000	23.789803	24.311885	170.365585
4968.000000	28.099175	25.006054	201.877129
4969.000000	25.122029	27.652193	188.819047
4970.000000	23.619491	25.164502	154.086951
4971.000000	28.636706	27.893586	122.834122
4972.000000	27.561815	25.887241	146.256264
4973.000000	27.869542	27.433562	143.520490
4974.000000	26.433623	28.901026	154.511243
4975.000000	32.654734	36.707601	227.104171
4976.000000	23.983950	27.508838	269.812585
4977.000000	31.790258	31.122641	299.454178
4978.000000	27.440691	26.789450	89.155790
4979.000000	28.125272	26.789482	198.025615
4980.000000	29.327450	27.910825	172.882635
4981.000000	28.277556	29.015937	170.001094
4982.000000	30.255620	33.812702	118.999707
4983.000000	30.578424	39.301316	168.281225
4984.000000	31.487084	30.047395	106.008363
4985.000000	29.358269	27.881440	239.325072
4986.000000	28.358465	29.327228	192.731925
4987.000000	32.006512	30.482252	336.697080
4988.000000	33.877651	31.130272	163.075115
4989.000000	34.019918	35.590055	254.612223
4990.000000	32.064617	28.808597	218.295757
4991.000000	32.941280	36.678020	196.641417
4992.000000	37.241274	37.811705	273.613151
4993.000000	34.311614	34.451939	169.836640
4994.000000	34.115623	35.733882	451.398797
4995.000000	34.973681	33.732671	367.156257
4996.000000	36.179829	34.506898	271.835486
4997.000000	37.794686	37.995137	343.122428
4998.000000	32.252477	29.602984	864.049147
4999.000000	35.480816	35.183659	221.385092
5000.000000	37.258388	38.751116	120.795294
5001.000000	40.948873	44.814972	185.750159
5002.000000	38.008837	37.303579	285.112174
5003.000000	38.394080	38.044514	216.183946
5004.000000	38.630298	39.409535	161.754372
5005.000000	41.340806	38.001314	142.224866
5006.000000	40.589508	36.022342	201.094042
5007.000000	39.634817	41.104248	238.651184
5008.000000	39.827212	41.744839	142.761112
5009.000000	42.380393	43.784410	279.863552
5010.000000	34.963152	34.595676	259.574185
5011.000000	41.656979	42.455976	297.944732
5012.000000	39.160228	38.366564	443.700134
5013.000000	41.379991	38.258161	211.432606
5014.000000	46.963323	45.481245	224.165350
5015.000000	39.044102	37.811782	278.417397
5016.000000	41.107665	42.768824	185.809717
5017.000000	41.472651	41.599610	177.150058
5018.000000	44.299710	43.376882	273.619030
5019.000000	38.337840	39.747231	264.045705
5020.000000	47.186217	51.954947	349.165745
5021.000000	40.973715	44.623610	282.962833
5022.000000	36.774891	38.033021	389.998395
5023.000000	37.386131	36.199202	513.661897
5024.000000	39.843791	44.515118	164.461417
5025.000000	41.811130	41.854899	127.698630
5026.000000	37.973046	39.300700	370.333778
5027.000000	43.349125	44.476572	209.248044
5028.000000	38.556945	35.701387	351.746129
5029.000000	46.231144	42.010999	182.460219
5030.000000	43.461982	43.767750	229.777531
5031.000000	45.486728	47.192856	235.893889
5032.000000	42.470667	42.780130	299.946721
5033.000000	43.840130	41.683431	184.842003
5034.000000	43.086447	42.760080	182.781624
5035.000000	38.821827	37.112653	308.322435
5036.000000	43.328850	45.996373	229.986336
5037.000000	41.835119	36.570025	349.773034
5038.000000	40.076348	37.229989	164.277176
5039.000000	37.197140	33.761313	266.640590
5040.000000	41.101110	43.029764	408.354031
5041.000000	42.212928	42.436395	159.317839
5042.000000	45.897863	47.029733	254.958170
5043.000000	39.584122	36.168346	486.161365
5044.000000	42.489098	38.653400	232.515218
5045.000000	42.054030	45.192578	466.730523
5046.000000	42.411955	38.361587	355.570387
5047.000000	41.518299	43.818017	509.360703
5048.000000	43.124921	40.847655	162.485131
5049.000000	35.614581	35.727235	175.090543
5050.000000	38.175086	35.515436	165.997941
5051.000000	40.770687	38.491275	192.164198
5052.000000	40.194633	43.071785	266.056232
5053.000000	37.434405	38.041060	275.090974
5054.000000	35.212341	36.229799	229.011870
5055.000000	39.454630	40.857415	175.563826
5056.000000	41.136190	38.151506	334.579474
5057.000000	38.434891	37.249883	138.152362
5058.000000	41.420446	40.596594	190.748763
5059.000000	40.099937	41.287005	213.114016
5060.000000	38.308119	39.530554	176.779318
5061.000000	43.694939	42.919775	280.464649
5062.000000	40.577114	38.472623	289.305537
5063.000000	38.267737	37.071698	158.757010
5064.000000	34.911808	33.754051	456.912330
5065.000000	37.627656	43.173819	391.434654
5066.000000	39.158665	38.568600	216.769748
5067.000000	36.243295	36.906660	177.521137
5068.000000	29.987946	32.369880	255.101758
5069.000000	33.038875	30.039987	178.224433
5070.000000	35.491878	36.519170	271.026019
5071.000000	33.141491	30.652646	382.274315
5072.000000	38.757975	36.670304	173.631076
5073.000000	38.337304	39.171134	307.840832
5074.000000	36.306565	33.099560	126.705931
5075.000000	37.724469	40.686659	216.841101
5076.000000	33.283343	30.025936	872.340927
5077.000000	34.273096	34.717025	155.433846
5078.000000	35.503868	31.364274	351.149472
5079.000000	34.629143	34.370558	269.635115
5080.000000	31.475746	28.510548	361.704898
5081.000000	33.517437	36.653946	539.933453
5082.000000	39.822306	39.974734	405.099504
5083.000000	32.319863	32.573131	322.584837
5084.000000	31.806328	31.202128	221.003071
5085.000000	39.606293	36.232067	286.379854
5086.000000	32.718511	33.100334	446.313158
5087.000000	33.176032	31.741869	405.153329
5088.000000	33.515712	34.172201	157.478348
5089.000000	31.268591	31.212056	244.659117
5090.000000	35.052407	32.781081	129.962652
5091.000000	33.509916	32.882725	164.814223
5092.000000	34.827498	30.762382	166.755908
5093.000000	33.507443	34.512377	173.586013
5094.000000	32.869330	34.194384	159.993812
5095.000000	32.183254	29.179129	274.522673
5096.000000	31.141352	29.526807	228.292809
5097.000000	31.947244	30.620308	231.705149
5098.000000	29.088813	30.734719	235.262315
5099.000000	31.707276	29.683313	267.555484
5100.000000	31.110899	27.123319	160.302367
5101.000000	31.953059	33.934223	157.815096
5102.000000	32.584028	29.568801	136.065432
5103.000000	31.855301	31.101281	239.820392
5104.000000	27.438773	24.101371	170.000774
5105.000000	32.287914	30.106998	203.604483
5106.000000	30.293781	32.738881	246.114332
5107.000000	28.530323	26.521730	144.597032
5108.000000	31.472914	31.753072	209.611973
5109.000000	26.958007	27.122318	122.466039
5110.000000	31.049397	33.894138	262.274259
5111.000000	29.781020	27.942645	162.445482
5112.000000	30.641588	33.248174	151.362099
5113.000000	27.870739	28.852091	154.052726
5114.000000	30.483061	33.501943	169.164139
5115.000000	27.180852	25.198063	172.895547
5116.000000	29.393015	30.354508	88.532157
5117.000000	29.854420	29.161684	159.661703
5118.000000	27.559200	29.162843	205.014893
5119.000000	29.175337	34.881350	128.826426
5120.000000	24.228354	24.615755	231.679629
5121.000000	30.482035	32.581499	140.152883
5122.000000	27.024753	26.996933	111.314345
5123.000000	26.640476	26.676134	184.448897
5124.000000	25.368503	27.571759	126.296274
5125.000000	28.563425	26.418217	147.180502
5126.000000	27.229100	24.973705	160.938492
5127.000000	23.397536	21.765766	100.878358
5128.000000	27.039281	27.415739	134.251195
5129.000000	23.821494	23.658169	116.756670
5130.000000	23.553666	21.753532	147.660400
5131.000000	21.978061	22.699238	157.932348
5132.000000	24.062405	23.946297	103.445729
5133.000000	25.948463	22.041293	78.471156
5134.000000	26.639222	30.205849	121.780012
5135.000000	23.298237	23.530393	127.785924
5136.000000	25.449463	26.643813	90.705891
5137.000000	25.368374	27.557610	107.036248
5138.000000	24.916652	26.412336	144.677929
5139.000000	22.230084	21.923343	93.887058
5140.000000	22.977209	21.645228	234.991360
5141.000000	27.689467	27.457617	175.373256
5142.000000	24.483234	22.482139	109.947093
5143.000000	21.622121	21.009062	128.487936
5144.000000	23.798460	23.195411	161.441460
5145.000000	22.816309	28.758807	109.861225
5146.000000	21.967778	22.481660	107.246295
5147.000000	23.106842	25.100696	116.668813
5148.000000	22.442790	21.227848	96.332004
5149.000000	23.093210	26.573283	80.690285
5150.000000	21.782387	23.548937	159.270924
5151.000000	18.392480	19.440362	90.550841
5152.000000	24.267226	25.810075	162.442044
5153.000000	23.507437	23.982400	74.800622
5154.000000	21.513034	20.357402	82.715282
5155.000000	23.677312	23.455877	142.840664
5156.000000	22.209748	18.540052	165.415242
5157.000000	19.553880	17.872485	179.842133
5158.000000	21.482983	24.098619	171.397661
5159.000000	20.357613	19.777989	78.673190
5160.000000	21.494244	21.092102	84.790283
5161.000000	21.220902	18.196475	152.925789
5162.000000	23.879959	21.501119	206.684783
5163.000000	21.839140	21.569230	139.773362
5164.000000	19.709778	18.701016	170.922234
5165.000000	20.891409	22.525592	216.114140
5166.000000	19.398487	18.388996	133.805407
5167.000000	18.467468	20.107303	361.591274
5168.000000	19.513771	19.402626	87.989404
5169.000000	17.576248	16.363983	99.121200
5170.000000	19.856958	20.630098	124.066052
5171.000000	17.973260	17.538492	135.061106
5172.000000	20.513118	21.158602	114.088094
5173.000000	18.553887	16.577556	165.900354
5174.000000	16.436443	13.981577	62.461501
5175.000000	17.686817	18.186384	79.066803
5176.000000	20.396338	20.275354	147.638530
5177.000000	19.535888	18.910443	99.075183
5178.000000	18.414345	17.258666	156.108197
5179.000000	16.695516	14.816566	113.525545
5180.000000	16.588246	16.380739	113.668232
5181.000000	19.849784	20.172532	100.015289
5182.000000	15.906664	17.046630	101.785383
5183.000000	17.355485	15.306277	75.738157
5184.000000	17.204851	15.839247	79.842838
5185.000000	14.361596	13.825893	138.161952
5186.000000	15.864765	15.307916	94.202488
5187.000000	17.496093	16.580243	70.717165
5188.000000	15.413872	15.152829	120.054072
5189.000000	15.783138	15.980892	63.953269
5190.000000	14.202515	13.626037	70.363376
5191.000000	16.601112	17.233604	62.735673
5192.000000	17.133624	16.663532	93.498798
5193.000000	15.807392	15.639929	68.354949
5194.000000	15.050138	14.146741	94.392561
5195.000000	14.566273	13.864966	98.636923
5196.000000	13.439194	13.897884	51.499779
5197.000000	13.918026	13.236827	54.259400
5198.000000	16.489271	15.157664	76.570775
5199.000000	16.111021	15.372040	114.466354
5200.000000	13.870719	14.756002	100.275508
5201.000000	14.326885	14.527834	68.416684
5202.000000	13.080980	12.459301	60.049032
5203.000000	15.167260	15.004390	51.056925
5204.000000	12.819259	12.253830	67.832132
5205.000000	13.221856	12.607555	63.700504
5206.000000	14.732786	13.709183	72.862157
5207.000000	13.409289	11.961866	85.801960
5208.000000	13.011385	12.847476	87.264151
5209.000000	16.015663	16.135005	35.422804
5210.000000	15.286067	18.434560	54.103061
5211.000000	14.199166	13.644379	95.711048
5212.000000	11.866078	10.324309	61.332894
5213.000000	13.830672	14.591972	60.926161
5214.000000	12.309496	11.966503	82.037464
5215.000000	16.236169	16.109550	91.738691
5216.000000	12.633405	11.472329	99.819950
5217.000000	13.015726	12.115784	80.186592
5218.000000	11.765210	10.986741	48.863234
5219.000000	12.692335	12.609829	66.185518
5220.000000	13.211379	11.830692	61.910397
5221.000000	14.998288	13.358544	74.852053
5222.000000	15.152156	13.952975	67.706230
5223.000000	14.804216	15.659949	52.478232
5224.000000	12.416648	15.429880	55.386931
5225.000000	14.218357	14.248021	66.345257
5226.000000	13.771793	14.802089	76.945751
5227.000000	11.655461	11.716333	55.223239
5228.000000	12.145275	11.442972	74.725636
5229.000000	12.110534	11.924035	73.579563
5230.000000	12.007475	12.647743	58.614767
5231.000000	12.766272	12.416030	79.647295
5232.000000	10.888365	11.050649	87.974802
5233.000000	11.711020	12.310163	66.127986
5234.000000	12.104489	12.097050	50.926832
5235.000000	12.864479	12.182714	85.790157
5236.000000	12.249300	12.052266	64.022560
5237.000000	12.232491	10.386762	57.101471
5238.000000	12.956011	13.352646	58.712448
5239.000000	13.058217	13.995721	57.291141
5240.000000	12.772633	11.639978	54.373185
5241.000000	14.570297	13.164352	54.269932
5242.000000	13.178862	13.574640	62.833386
5243.000000	13.279456	12.157663	73.884417
5244.000000	12.424636	13.328650	56.776623
5245.000000	12.915395	14.695394	53.725259
5246.000000	13.597662	13.522037	73.183905
5247.000000	12.181693	10.965071	90.240234
5248.000000	11.987888	10.807910	52.437005
5249.000000	12.976712	12.396119	52.720503
5250.000000	14.050818	14.419387	70.536580
5251.000000	14.169287	13.103614	59.767469
5252.000000	13.620498	12.577182	52.123526
5253.000000	15.303681	14.647886	58.514792
5254.000000	13.434979	12.735613	63.336888
5255.000000	11.527683	10.588342	49.546067
5256.000000	12.076436	12.436513	78.202355
5257.000000	12.723255	11.978429	61.614849
5258.000000	12.410527	12.105604	51.140592
5259.000000	11.532313	11.508710	71.519001
5260.000000	12.590978	12.196736	56.773733
5261.000000	11.533743	10.621589	90.501418
5262.000000	11.947428	11.063412	50.336790
5263.000000	12.641322	13.768964	71.010758
5264.000000	13.237390	12.780816	69.611910
5265.000000	12.466521	11.712357	49.086967
5266.000000	12.256126	12.094602	61.575239
5267.000000	12.488545	12.100284	76.658243
5268.000000	12.156652	12.168890	57.634011
5269.000000	11.393844	12.065165	55.869451
5270.000000	12.882177	12.114171	73.678532
5271.000000	11.839346	12.106734	41.146479
5272.000000	12.784214	12.372968	51.898714
5273.000000	12.224258	12.775718	53.088417
5274.000000	11.592301	11.477552	74.815529
5275.000000	11.390046	12.352037	60.309047
5276.000000	11.888109	11.689630	67.983126
5277.000000	12.067179	14.033009	44.350999
5278.000000	11.537599	11.684817	40.552401
5279.000000	11.905461	12.531463	64.293694
5280.000000	10.936707	10.454307	66.448128
5281.000000	11.520751	11.208109	39.816203
5282.000000	11.803340	10.985502	69.752066
5283.000000	11.718309	10.627126	74.253138
5284.000000	10.311106	10.103716	68.906048
5285.000000	11.845780	11.095659	60.170009
5286.000000	11.261509	10.800304	67.722796
5287.000000	11.206925	10.714847	43.087138
5288.000000	11.555030	10.834229	85.255297
5289.000000	12.061165	10.803667	59.269199
5290.000000	12.720276	12.857635	44.669543
5291.000000	12.217065	11.553985	46.416868
5292.000000	12.774669	12.812113	75.726793
5293.000000	11.210716	10.776585	58.648468
5294.000000	11.298705	10.903628	60.273678
5295.000000	11.660576	11.820694	39.493825
5296.000000	9.987640	9.622255	75.597572
5297.000000	12.672471	12.344287	44.415135
5298.000000	12.403952	12.854015	89.395510
5299.000000	10.713072	10.743470	67.988456
5300.000000	12.039884	11.975838	60.550713
5301.000000	11.363063	12.165747	51.015600
5302.000000	11.055616	12.067063	45.036016
5303.000000	11.761664	10.395709	42.737220
5304.000000	10.898985	10.298263	65.573197
5305.000000	11.136405	11.989786	49.393196
5306.000000	10.938412	10.026931	70.521416
5307.000000	10.930104	10.690646	43.156085
5308.000000	10.870456	10.994221	77.358174
5309.000000	10.885169	10.652044	64.364635
5310.000000	12.758976	13.556885	52.534112
5311.000000	11.432032	11.084625	44.994370
5312.000000	11.769805	12.263197	61.998700
5313.000000	10.209991	9.713179	53.320242
5314.000000	10.620498	11.005747	60.424483
5315.000000	11.410818	10.670588	49.253789
5316.000000	11.316473	11.996157	121.672450
5317.000000	11.934421	12.445934	95.712723
5318.000000	10.297199	10.823636	56.853484
5319.000000	11.344931	12.484211	84.390941
5320.000000	11.375246	12.046148	84.448863
5321.000000	10.208855	8.872249	59.856774
5322.000000	10.069433	9.839647	35.553880
5323.000000	10.896633	11.973966	64.640896
5324.000000	9.735012	9.139154	58.015063
5325.000000	10.700770	10.456109	44.699737
5326.000000	11.688245	10.998550	58.676647
5327.000000	9.986744	10.435520	83.252219
5328.000000	10.622901	10.067305	43.365778
5329.000000	9.923961	9.353517	107.898091
5330.000000	10.613988	10.600949	46.743172
5331.000000	10.884167	10.949417	68.026602
5332.000000	11.313395	10.914120	54.797468
5333.000000	10.879903	9.246735	47.796049
5334.000000	9.399412	9.832828	43.475718
5335.000000	10.598591	11.363523	44.979117
5336.000000	12.091923	12.596227	44.220180
5337.000000	10.000827	10.633708	46.698819
5338.000000	10.281160	10.381825	43.607523
5339.000000	10.907602	10.752883	26.770960
5340.000000	10.780404	9.728115	43.529547
5341.000000	10.443079	10.069089	37.785419
5342.000000	10.265875	10.073823	81.873128
5343.000000	11.193998	12.549165	36.414307
5344.000000	11.299598	11.840988	50.918657
5345.000000	9.541077	9.142482	40.609073
5346.000000	10.788497	10.014443	32.634796
5347.000000	10.415729	10.977554	70.434468
5348.000000	10.157970	10.159575	50.947095
5349.000000	10.936026	11.869551	36.326892
5350.000000	10.712302	10.748900	66.566134
5351.000000	10.233315	9.737151	37.523101
5352.000000	10.149203	9.837375	41.252064
5353.000000	11.349162	11.329683	52.281293
5354.000000	9.644635	9.613552	43.615067
5355.000000	9.529745	8.191186	48.201028
5356.000000	10.397533	10.638618	30.005854
5357.000000	11.871266	12.221660	55.870208
5358.000000	9.738388	9.328215	49.607931
5359.000000	10.263660	10.285592	73.707460
5360.000000	10.463444	10.538511	36.162233
5361.000000	9.258011	8.812919	43.734556
5362.000000	9.798900	9.342365	45.503893
5363.000000	9.673338	9.425523	40.907934
5364.000000	9.465103	9.880650	40.149328
5365.000000	9.436502	9.515339	58.623813
5366.000000	10.829032	10.744963	45.629572
5367.000000	8.703346	8.420298	45.403480
5368.000000	11.352195	10.762839	34.135121
5369.000000	11.040515	10.346649	75.128184
5370.000000	8.013400	8.503232	37.588780
5371.000000	8.655657	9.016643	68.044009
5372.000000	9.947388	10.143471	53.362717
5373.000000	10.388363	10.814540	50.938872
5374.000000	10.193418	10.945608	51.139643
5375.000000	10.028488	9.636572	89.050725
5376.000000	10.496776	10.784683	57.795702
5377.000000	9.329429	8.907173	33.623040
5378.000000	8.837717	8.623062	47.109227
5379.000000	9.834881	9.696543	51.000302
5380.000000	9.291467	10.545300	39.546650
5381.000000	8.797323	7.924008	43.063822
5382.000000	9.019560	8.705420	40.136746
5383.000000	9.523734	10.267963	50.184371
5384.000000	8.042052	7.906591	34.384448
5385.000000	8.198464	8.738327	39.656630
5386.000000	8.694376	8.008625	52.714412
5387.000000	10.114766	10.781018	46.460767
5388.000000	9.950852	9.608512	45.764191
5389.000000	8.873233	9.300835	56.123137
5390.000000	9.849869	9.182787	30.932504
5391.000000	9.118889	8.891961	47.486162
5392.000000	9.039148	8.936377	42.002009
5393.000000	8.660582	8.509952	36.099251
5394.000000	9.494125	9.273204	55.059678
5395.000000	8.657624	8.764500	56.839543
5396.000000	8.273771	7.908179	57.056265
5397.000000	8.305276	8.305395	37.037284
5398.000000	8.632135	7.799708	29.683175
5399.000000	9.852666	10.668048	32.340742
5400.000000	8.301782	8.540663	50.882397
5401.000000	7.761928	7.733038	45.217423
5402.000000	8.698928	9.576827	41.033920
5403.000000	8.705251	7.896347	32.796700
5404.000000	9.566599	9.222553	50.712654
5405.000000	7.413819	7.474209	32.492248
5406.000000	7.696772	7.726425	29.487533
5407.000000	7.957699	7.091775	37.384010
5408.000000	8.199749	8.934063	65.963215
5409.000000	8.575842	8.156314	25.485589
5410.000000	8.779857	9.257651	34.062032
5411.000000	6.852375	6.460089	48.558191
5412.000000	8.799780	7.926492	28.296401
5413.000000	9.131216	9.713225	34.021294
5414.000000	7.510974	7.447652	37.087361
5415.000000	7.169870	6.313427	30.926361
5416.000000	8.018231	8.532032	32.265767
5417.000000	8.226509	7.798812	58.817446
5418.000000	7.691263	8.767461	31.716984
5419.000000	7.539618	7.560872	52.795190
5420.000000	6.091547	5.523526	29.111942
5421.000000	7.970531	7.563528	48.781882
5422.000000	7.033187	7.261421	30.947423
5423.000000	6.951642	7.092169	20.954592
5424.000000	8.255304	8.139181	25.175134
5425.000000	8.262292	7.251871	39.904874
5426.000000	6.832310	6.647775	42.605364
5427.000000	7.268663	7.113750	32.395887
5428.000000	6.494463	6.077666	34.783231
5429.000000	6.923535	7.966719	24.299811
5430.000000	7.472853	7.260406	32.650598
5431.000000	7.400566	6.370840	27.291692
5432.000000	7.150131	6.650540	31.239519
5433.000000	6.167237	7.215845	21.004288
5434.000000	7.008700	7.052676	45.516082
5435.000000	6.879397	6.431978	30.131784
5436.000000	6.563873	6.138574	39.368909
5437.000000	7.873639	7.381574	58.872716
5438.000000	6.911488	7.118263	34.921722
5439.000000	6.488482	6.317611	36.489188
5440.000000	5.984962	5.523039	26.475548
5441.000000	6.583108	5.867008	33.720350
5442.000000	6.626185	7.288884	19.317172
5443.000000	5.723234	5.678228	26.141317
5444.000000	6.510071	5.791573	29.043168
5445.000000	5.953410	5.636113	24.201634
5446.000000	5.927354	5.568185	31.120927
5447.000000	6.166913	5.783768	23.573462
5448.000000	6.334692	6.861991	29.053919
5449.000000	5.914441	5.975845	48.748007
5450.000000	6.177654	5.737302	27.032258
5451.000000	5.975087	6.108190	31.247403
5452.000000	5.968631	6.239304	28.091934
5453.000000	6.099099	6.176615	40.076448
5454.000000	5.703361	5.382390	30.596899
5455.000000	5.355642	5.112954	21.990543
5456.000000	5.282260	5.300962	24.130836
5457.000000	5.673624	5.981088	20.843143
5458.000000	5.650215	5.691785	20.343056
5459.000000	5.672497	5.497193	31.394633
5460.000000	5.289037	5.335617	43.385396
5461.000000	5.858536	5.749049	27.021026
5462.000000	6.009733	5.754585	33.905264
5463.000000	4.784557	4.846380	29.259575
5464.000000	5.880522	5.947830	22.028822
5465.000000	5.419927	5.049973	24.289823
5466.000000	5.305890	5.471551	23.152370
5467.000000	6.176333	5.818897	20.925394
5468.000000	5.562164	5.802258	26.579598
5469.000000	4.764771	4.446105	31.015222
5470.000000	4.570167	4.283241	19.162994
5471.000000	5.122604	5.758542	24.932356
5472.000000	4.792916	5.080757	16.589637
5473.000000	4.933556	4.599789	33.740663
5474.000000	5.114634	5.282236	30.123201
5475.000000	5.024670	4.695910	40.976598
5476.000000	5.591553	5.551888	28.241311
5477.000000	4.617884	4.148437	29.246822
5478.000000	4.751660	4.309473	21.363945
5479.000000	5.415442	5.537482	22.653105
5480.000000	4.881813	5.240602	52.262255
5481.000000	4.808419	5.070328	23.643407
5482.000000	4.263663	4.305976	20.308067
5483.000000	4.850224	4.532459	17.176684
5484.000000	4.592552	4.585946	33.037917
5485.000000	4.699775	5.004238	26.157248
5486.000000	4.748266	4.892961	13.826583
5487.000000	4.786090	5.105950	19.426762
5488.000000	4.252133	4.469005	15.774559
5489.000000	4.883540	5.017835	29.764910
5490.000000	4.318189	4.615755	19.916881
5491.000000	4.016136	3.909239	17.452122
5492.000000	4.172406	4.245881	18.629047
5493.000000	4.144572	4.260216	29.474396
5494.000000	4.100688	4.058709	16.621886
5495.000000	4.055862	4.203741	22.485490
5496.000000	4.785934	4.406437	16.213922
5497.000000	4.102658	5.021832	20.690379
5498.000000	4.468099	4.595684	19.301841
5499.000000	3.754419	3.756299	17.683764
5500.000000	3.896497	3.979612	13.409624
